m/z	Absolute Intensity
35.00	95
37.00	31
39.10	619
40.05	581
41.10	3198
42.10	3829
43.10	9984
47.10	216
48.10	5
49.10	66
50.10	173
51.10	131
52.10	86
53.10	174
54.10	66
55.15	217
56.10	1811
57.15	4681
58.20	279
59.20	17
60.20	29
63.20	24
65.20	42
67.20	91
68.20	4
69.15	341
70.20	347
71.20	277
74.10	45
75.10	38
76.10	86
77.10	68
78.10	171
79.10	140
82.10	169
84.15	1493
85.15	4935
86.10	363
90.10	22
93.10	28
95.10	33
98.10	43
99.10	59
100.10	398
101.10	12
108.10	11
110.10	45
116.10	22
117.00	658
119.00	895
121.00	186
123.00	42
124.00	30
125.00	29
126.00	15
128.00	5
131.00	11
132.10	9
133.00	39
134.00	50
137.00	8
138.00	33
139.10	8
142.00	8
145.00	1
146.00	10
149.10	13
150.00	8
151.10	6
152.00	2
154.00	17
158.00	10
159.10	41
162.10	32
163.00	31
164.00	7
168.00	11
169.00	26
171.00	22
172.10	23
173.00	35
174.10	30
180.10	26
181.00	34
184.10	20
187.00	40
188.10	26
189.00	1
193.10	29
196.00	25
197.10	18
198.00	31
199.00	26
203.00	8
204.00	45
207.10	22
213.00	7
214.00	25
219.00	22
224.10	26
227.00	22
229.00	45
232.00	15
233.00	54
234.00	10
237.00	25
239.00	50
243.10	7
247.00	8
253.00	11
255.00	1
256.00	11
258.00	7
259.10	3
260.10	57
266.00	29
268.10	55
274.00	31
276.10	44
278.00	14
279.00	4
282.00	18
285.00	2
287.00	25
288.10	9
292.10	8
293.10	8
296.10	29
297.00	21
301.10	3
303.00	19
304.10	27
307.00	15
311.00	41
314.00	21
315.00	6
318.00	40
319.10	2
320.10	21
321.00	46
325.00	9
326.10	7
327.00	51
332.10	25
334.10	21
336.10	5
337.10	28
338.00	51
341.00	20
343.10	13
344.00	6
345.00	21
347.10	34
348.10	43
351.00	31
352.10	88
353.00	21
356.00	6
360.00	7
362.00	13
365.00	61
367.10	47
369.10	16
376.00	11
377.10	45
378.00	22
380.00	13
381.10	17
382.00	57
386.10	11
388.10	14
391.00	3
392.00	41
393.10	18
394.00	27
396.10	7
397.10	42
398.00	11
