m/z	Absolute Intensity
35.00	9
36.00	2
38.00	13
39.10	1500
40.05	506
41.10	8185
42.10	3250
43.10	7278
44.05	216
45.10	263
46.10	44
48.10	31
49.10	55
50.10	103
51.10	88
53.10	316
54.10	59
55.10	2113
56.15	12577
57.10	2112
58.10	12
62.10	66
65.10	12
67.10	37
70.10	147
71.10	1038
72.10	10
73.10	71
74.10	155
75.10	20
76.10	25
78.10	25
79.10	53
81.10	45
83.10	3
88.10	1
93.00	20
94.00	15
95.00	29
96.00	5
98.00	3
99.10	9
100.00	27
101.00	11
104.10	14
107.00	5
110.00	27
116.00	2
117.00	60
119.00	8
121.10	3
123.10	11
124.00	17
126.10	31
127.00	1
128.00	37
132.00	12
133.10	35
134.10	36
138.10	23
139.10	56
140.00	30
146.00	15
147.00	27
149.10	22
150.10	35
151.00	32
152.00	22
154.10	17
156.10	24
157.10	32
159.00	29
162.00	25
167.00	9
168.00	64
169.10	43
171.00	18
172.00	18
173.00	27
174.00	26
176.00	10
177.00	73
181.10	22
182.10	3
184.00	10
185.00	5
187.00	19
188.10	32
192.00	13
193.00	19
197.00	3
203.00	4
206.00	3
207.00	14
209.00	22
212.00	59
214.00	36
215.10	28
216.00	30
217.00	26
219.10	5
221.10	18
223.00	8
224.00	45
226.00	35
227.00	32
230.10	13
231.00	13
232.00	6
233.10	10
236.00	29
237.10	36
239.10	11
242.00	50
243.00	15
247.10	1
248.00	31
249.10	8
250.10	17
253.10	32
255.00	7
256.00	25
258.00	7
259.10	2
262.10	2
265.00	25
266.00	2
272.00	15
275.00	2
276.00	3
286.00	65
287.10	37
290.00	38
291.10	2
300.00	2
303.00	36
306.10	64
311.00	67
312.00	4
313.00	1
314.10	2
315.00	1
317.10	8
321.00	8
327.00	30
331.00	50
332.10	6
334.00	19
335.00	6
336.00	23
338.10	30
340.00	9
341.10	11
343.00	25
344.00	6
346.10	19
347.10	19
350.10	19
352.10	9
356.10	17
359.10	13
362.00	33
363.10	2
365.00	74
375.00	19
376.00	16
377.10	32
382.10	8
385.10	19
392.00	1
393.00	39
394.00	8
395.00	60
396.10	2
397.10	1
