m/z	Absolute Intensity
35.00	18
36.00	18
37.00	33
38.00	23
39.10	996
40.05	48
41.10	821
42.15	486
43.10	12955
44.05	438
45.10	135
47.00	11
50.10	7
55.10	500
56.10	79
58.10	9547
59.10	1880
60.10	121
61.10	62
63.10	14
64.10	18
67.10	123
68.10	35
71.10	1944
72.15	466
73.10	55
76.10	11
78.10	102
79.20	45
82.10	7
85.20	309
86.10	57
90.10	28
92.10	42
97.20	41
99.10	422
100.20	4
101.10	34
107.10	28
108.20	32
109.10	2
111.10	14
112.20	36
114.10	418
115.10	69
117.10	8
127.10	13
129.20	6
130.20	51
132.20	16
133.20	2
136.20	59
137.10	60
139.10	9
141.10	19
142.10	11
143.10	44
145.10	1
147.10	20
149.10	51
150.10	5
152.10	11
153.20	13
156.10	54
158.10	60
161.10	16
164.20	10
165.20	29
166.20	14
167.10	1
168.20	33
169.10	1
171.10	41
172.10	1
173.20	31
178.10	47
179.20	45
180.20	11
182.10	10
183.20	4
185.20	18
188.10	7
189.10	34
191.10	2
195.10	2
197.10	26
200.10	22
201.10	20
202.20	17
207.10	4
208.20	29
209.10	23
211.10	20
216.10	17
217.10	71
220.10	9
222.10	12
223.10	5
227.10	7
230.10	9
235.10	9
236.10	3
241.10	50
242.10	6
246.10	19
248.10	1
251.10	36
252.10	9
255.10	3
258.10	2
260.10	37
261.20	37
262.20	35
266.20	16
268.10	34
271.10	31
276.10	24
278.10	37
279.20	14
280.10	43
282.10	44
284.10	5
286.20	12
288.10	25
289.20	7
290.20	19
291.20	19
292.10	15
293.10	17
296.10	30
298.10	39
300.10	14
301.10	38
307.10	15
309.10	38
310.10	29
315.10	6
318.10	6
321.10	13
322.10	10
323.10	23
324.10	20
325.10	17
326.10	53
327.10	35
328.10	19
333.10	16
335.10	12
338.10	35
341.10	11
344.20	11
345.10	17
346.20	29
347.20	58
350.10	5
354.10	19
355.20	32
356.10	22
357.10	24
358.20	32
361.10	18
363.10	42
365.20	33
368.10	8
369.20	13
371.20	21
374.20	34
375.20	4
376.20	17
379.20	19
380.20	20
384.10	10
386.10	10
387.20	8
389.20	6
397.10	4
398.20	7
399.20	4
