m/z	Absolute Intensity
36.00	76
37.15	500
38.05	912
39.10	1570
40.10	141
42.00	100
46.00	92
48.00	55
49.15	436
50.10	4309
51.10	9716
52.05	2024
53.05	257
54.10	4
55.15	93
56.05	122
57.10	147
58.10	238
60.10	15
61.10	168
62.10	355
63.10	600
65.10	98
68.10	15
69.10	71
70.10	66
73.10	119
74.10	1314
75.10	673
76.10	924
77.10	19283
78.10	3203
79.05	373
80.10	51
82.10	47
85.10	496
86.10	136
87.10	3
88.10	7
89.10	138
90.10	74
93.10	94
94.10	25
95.10	41
96.10	77
97.10	2
98.10	3
100.10	34
102.10	29
103.10	104
104.10	34
105.10	19229
106.10	18008
107.15	1531
108.10	167
112.20	33
115.20	45
120.15	521
138.10	47
139.20	43
140.10	7
142.10	31
143.10	9
144.10	38
145.10	2
148.10	23
150.10	65
151.10	9
152.20	21
153.20	11
154.20	57
155.10	37
156.10	51
157.10	10
160.20	10
166.20	13
167.20	12
170.20	41
172.20	14
174.10	16
175.10	11
177.20	47
179.10	24
181.10	14
182.20	23
186.20	19
189.10	44
190.10	16
192.10	44
196.20	28
197.10	28
200.10	60
203.10	23
208.10	30
210.20	50
211.10	22
212.10	20
215.20	11
216.10	46
217.20	13
219.20	47
221.10	30
224.10	15
228.10	9
230.10	24
231.10	55
233.20	13
235.20	29
236.10	51
237.20	28
239.20	36
241.20	3
245.20	4
247.10	21
255.20	24
256.20	45
258.10	43
260.10	61
264.10	15
269.20	30
270.20	15
271.20	3
272.20	9
274.20	32
277.10	28
278.10	8
279.10	17
280.10	11
284.20	10
287.10	1
289.20	9
291.10	17
294.20	20
295.10	16
296.10	2
298.10	18
299.10	72
300.10	22
302.10	15
304.10	33
305.10	22
308.10	43
309.10	11
313.10	29
314.10	5
315.20	9
317.20	15
318.10	37
319.20	3
320.10	32
321.10	10
322.10	31
323.20	6
326.10	13
330.10	41
331.10	5
333.20	14
335.20	71
336.20	42
338.20	46
339.10	7
342.10	42
343.20	2
344.20	45
346.10	53
348.10	99
352.10	44
353.10	11
355.20	10
357.10	33
358.20	34
360.20	27
363.10	9
364.20	10
365.10	11
367.10	64
369.10	3
371.20	41
372.10	13
373.10	7
374.20	21
378.10	24
380.10	22
381.10	3
382.10	13
388.10	28
391.10	27
392.20	14
394.20	6
