m/z	Absolute Intensity
35.00	83
37.00	47
39.10	114
42.10	240
45.10	730
46.10	53
47.10	31
48.10	18
54.10	45
55.15	320
56.15	310
59.15	423
61.10	19
62.20	3
65.10	83
69.10	221
70.10	15
73.10	3831
74.10	259
75.10	595
76.10	80
78.10	37
82.10	95
84.10	191
85.10	139
86.10	1
87.10	234
88.10	106
89.10	110
90.10	65
91.10	8
93.10	14
95.10	129
96.10	463
97.10	53
101.10	14
102.10	5
103.10	334
104.00	149
107.10	27
108.10	48
110.10	102
111.10	355
112.10	234
115.10	172
116.10	19
117.10	261
118.10	317
119.05	573
120.10	257
121.10	107
125.10	1625
126.05	416
127.10	44
128.10	34
131.10	139
132.10	44
133.10	4071
134.00	866
135.10	86
136.00	32
138.00	28
139.10	29
140.10	60
142.10	13
143.10	11
145.10	78
147.10	130
149.00	276
151.10	17
152.00	14
155.10	19
156.00	23
159.10	61
160.10	22
161.10	185
163.00	435
164.10	70
165.10	436
166.00	17
167.00	150
172.10	13
175.00	15
176.00	190
176.90	600
177.90	127
178.90	618
179.90	71
180.90	31
181.90	2
182.90	45
183.90	12
184.90	11
187.90	9
189.00	287
190.00	74
191.00	3113
192.00	489
192.90	1575
193.90	246
194.90	237
195.90	49
199.00	8
199.90	23
202.90	328
203.90	68
204.95	896
206.00	293
206.95	1876
207.95	491
209.00	242
210.00	60
211.00	9
212.00	10
215.90	27
217.00	65
219.00	51
220.90	106
223.00	65
226.00	10
229.90	8
231.00	30
234.00	32
234.90	449
235.90	50
237.00	47
238.90	51
240.00	22
241.00	2
242.00	18
246.90	32
247.90	33
248.95	3156
249.85	720
250.90	1309
252.00	324
253.00	95
254.90	63
256.00	12
256.90	4
259.90	25
261.00	29
264.00	30
265.00	3562
265.95	1311
267.00	694
268.00	227
269.00	75
270.00	4
271.00	16
275.00	31
277.00	33
280.00	42
281.00	29777
282.05	7679
283.05	4873
284.05	933
285.00	366
289.00	16
290.00	1
295.00	12
299.00	40
302.00	35
304.00	39
305.00	58
307.00	8
310.00	37
312.00	3
313.00	11
314.00	22
316.00	11
318.00	9
319.00	55
320.00	3
324.00	5
325.00	2
328.00	12
330.00	13
332.00	19
334.00	6
336.00	15
337.00	27
339.00	22
340.00	29
342.00	10
344.00	14
345.00	47
346.00	41
348.00	22
352.00	42
354.00	11
355.00	31
356.00	31
358.00	45
360.00	8
361.00	20
367.00	26
368.00	24
369.00	23
378.00	8
379.00	10
380.00	12
382.00	19
384.00	32
387.00	26
389.00	48
391.00	26
392.00	11
395.00	43
