m/z	Absolute Intensity
36.00	3
37.00	83
38.10	96
39.10	6321
40.10	1728
41.10	38122
42.10	2127
43.10	6210
44.05	513
45.10	99
48.00	46
50.10	339
51.10	1020
52.10	539
53.10	5644
54.15	591
55.15	12450
56.10	1666
57.15	4071
58.10	367
59.10	175
60.10	65
61.10	149
62.10	49
63.10	288
64.10	93
65.15	2332
66.15	649
67.10	10171
68.15	6419
69.15	54951
70.10	3558
71.10	1328
72.10	121
73.10	172
74.10	115
75.10	134
76.10	23
77.10	5545
78.10	1011
79.10	9715
80.10	3752
81.10	16955
82.15	3677
83.15	1883
84.10	2261
85.15	325
86.20	42
88.10	33
89.10	125
90.10	60
91.10	9765
92.15	4058
93.15	23941
94.15	4179
95.10	5846
96.10	912
97.20	1168
98.20	293
101.10	57
102.10	77
103.10	640
104.15	249
105.15	7192
106.15	1536
107.15	8671
108.20	1736
109.15	4682
110.20	946
111.20	681
113.20	131
114.20	25
115.15	486
116.20	89
117.10	901
118.20	340
119.15	10188
120.15	3882
121.15	4805
122.20	2099
123.20	4028
124.20	842
125.15	440
127.25	682
128.20	281
129.20	183
130.30	160
131.20	668
132.20	216
133.15	4612
134.20	2114
135.20	1779
136.20	3172
137.20	1167
138.25	522
139.20	260
140.20	78
141.20	6
143.20	192
144.20	135
145.20	228
146.10	50
147.15	1304
148.10	796
149.20	442
150.10	53
151.10	76
152.10	64
153.20	15
154.20	2
157.20	117
158.10	142
159.20	422
160.10	34
161.15	4140
162.25	1124
163.15	396
164.10	31
166.10	88
167.20	63
168.20	29
171.20	34
173.10	53
175.20	442
176.20	182
177.20	204
178.10	32
179.10	284
183.20	77
185.10	129
187.10	177
188.10	10
189.15	1237
190.10	214
191.05	541
192.10	77
193.00	112
194.00	50
195.00	6
196.00	15
199.00	2
202.00	62
203.00	143
204.15	1857
205.10	226
206.00	168
206.95	264
210.90	38
212.00	30
213.90	6
214.90	9
216.90	24
217.90	46
219.00	19
220.00	67
223.00	39
227.90	24
229.00	11
229.90	24
232.90	28
233.90	9
235.00	3
235.90	26
238.00	12
238.90	36
240.90	5
242.00	21
243.00	35
244.00	29
244.90	3
246.90	23
248.00	51
249.00	61
249.90	82
251.90	107
253.90	8
254.90	7
256.00	66
259.90	10
260.90	31
264.00	47
264.90	55
266.00	15
267.00	67
269.00	31
270.00	34
271.00	5
273.90	25
277.00	10
278.90	29
279.90	6
283.90	18
293.90	39
295.00	13
299.00	46
301.00	44
305.00	49
307.00	36
308.00	27
309.00	25
310.00	2
311.00	52
312.00	16
314.00	1
314.90	14
317.00	11
318.90	41
321.00	2
324.00	2
324.90	7
330.00	12
330.90	1
332.90	1
338.00	18
341.00	67
341.90	6
343.90	65
347.00	7
354.00	65
360.00	16
364.00	25
365.90	10
367.00	2
369.00	6
369.90	26
372.00	19
373.00	5
373.90	6
375.00	16
377.00	11
378.90	2
382.00	17
383.90	18
385.00	21
388.00	4
391.00	28
398.00	21
