[MS Spectrum]	
# of Peaks	314
Raw Spectrum	2.117 (scan : 71)
Background	No Background Spectrum
Base Peak	m/z 43.10 (Inten : 13,585)
Event#	1
m/z	Absolute Intensity
35.00	202
36.00	10
37.00	138
38.00	166
39.05	1610
40.05	3457
41.10	6414
42.10	5289
43.10	13585
44.05	3235
45.10	239
46.10	39
47.10	406
48.10	74
49.10	102
50.10	354
51.10	258
52.10	246
53.10	327
54.10	183
55.15	1125
56.10	5375
57.15	5613
58.20	510
59.20	90
60.20	182
61.20	55
62.20	11
63.20	86
64.20	46
65.20	140
67.20	140
68.20	102
69.20	436
70.20	542
71.20	407
72.20	73
73.20	27
74.20	52
75.20	63
76.20	60
77.20	178
78.20	316
79.20	164
80.20	42
81.20	2
82.20	260
83.10	127
84.15	2291
85.15	5937
86.10	566
87.10	62
89.10	8
91.10	19
93.10	55
94.10	58
95.10	52
97.10	44
98.10	103
99.10	57
100.10	369
101.10	29
102.10	29
103.10	42
105.10	29
106.10	24
108.10	44
109.10	24
110.10	78
111.10	22
113.10	14
114.10	55
115.10	27
117.00	985
118.00	65
119.00	1239
120.00	46
121.00	289
122.00	30
123.00	81
124.00	30
125.00	41
126.00	55
127.00	3
128.00	27
129.00	70
131.00	50
132.00	24
133.00	44
134.00	57
135.00	19
136.00	34
137.00	81
138.00	52
139.00	14
140.00	57
141.00	19
142.00	31
143.00	33
145.00	50
146.00	79
147.00	6
148.00	60
149.00	29
150.00	49
151.00	2
152.00	52
153.00	44
154.00	52
155.00	29
156.00	46
157.00	26
158.00	33
159.00	31
160.00	52
161.00	8
162.00	60
163.00	38
164.00	31
165.00	36
166.00	21
167.00	14
168.00	31
169.00	41
170.00	30
171.00	57
172.00	22
173.00	33
174.00	21
175.00	41
176.00	42
177.00	30
178.00	44
179.00	24
180.00	36
181.00	58
182.00	22
183.00	13
184.00	13
185.00	13
186.00	10
187.00	70
188.00	22
189.00	54
191.00	18
192.00	19
193.00	54
195.00	26
196.00	50
197.00	11
198.00	46
199.00	33
200.00	3
202.00	30
203.00	41
204.00	39
205.00	22
206.00	47
207.00	55
208.00	21
209.00	44
211.00	33
213.00	49
214.00	47
215.00	47
216.00	16
217.00	18
219.00	36
221.00	47
222.00	19
223.00	11
224.00	8
227.00	42
229.00	57
230.00	52
231.00	6
232.00	42
233.00	54
235.00	13
236.00	2
237.00	42
238.00	10
239.00	33
241.00	76
242.00	26
245.00	21
247.00	24
248.00	6
250.00	34
252.00	81
253.00	30
254.00	33
255.00	26
256.00	8
257.00	10
258.00	24
259.00	10
260.00	41
262.00	24
263.00	19
265.00	5
266.00	82
267.00	33
268.00	27
269.00	16
270.00	13
271.00	29
272.00	22
273.00	76
274.00	47
276.00	26
277.00	42
278.00	34
279.00	78
280.00	24
281.00	58
282.00	46
283.00	10
284.00	24
285.00	19
287.00	42
288.00	16
290.00	13
291.00	27
292.00	22
293.00	29
295.00	19
296.00	21
297.00	47
298.00	46
301.00	2
302.00	10
303.00	42
304.00	29
307.00	62
308.00	16
309.00	16
311.00	52
313.00	57
314.00	70
315.00	24
316.00	6
317.00	13
318.00	89
320.00	24
321.00	82
322.00	30
323.00	29
324.00	10
325.00	62
326.00	36
327.00	36
328.00	41
329.00	14
330.00	36
331.00	18
332.00	14
334.00	19
335.00	22
336.00	21
337.00	21
338.00	49
339.00	30
340.00	42
341.00	14
342.00	2
343.00	10
344.00	24
345.00	57
347.00	36
348.00	30
349.00	22
350.00	30
351.00	49
352.00	74
353.00	38
354.00	55
355.00	30
356.00	65
357.00	33
358.00	6
360.00	22
361.00	24
362.00	30
363.00	6
364.00	13
365.00	98
367.00	50
369.00	27
371.00	50
372.00	22
373.00	26
376.00	52
377.00	42
378.00	42
380.00	34
381.00	27
382.00	55
384.00	27
385.00	3
386.00	8
387.00	55
388.00	31
389.00	18
390.00	11
391.00	21
392.00	42
394.00	44
395.00	34
396.00	3
397.00	52
398.00	31
399.00	30
400.00	18
[MS Spectrum]	
# of Peaks	179
Raw Spectrum	2.117 -> 2.120 (scan : 71 -> 73)
Background	2.075 <-> 2.128 (scan : 46 <-> 78)
Base Peak	m/z 43.10 (Inten : 9,984)
Event#	1
m/z	Absolute Intensity
35.00	95
37.00	31
39.10	619
40.05	581
41.10	3198
42.10	3829
43.10	9984
47.10	216
48.10	5
49.10	66
50.10	173
51.10	131
52.10	86
53.10	174
54.10	66
55.15	217
56.10	1811
57.15	4681
58.20	279
59.20	17
60.20	29
63.20	24
65.20	42
67.20	91
68.20	4
69.15	341
70.20	347
71.20	277
74.10	45
75.10	38
76.10	86
77.10	68
78.10	171
79.10	140
82.10	169
84.15	1493
85.15	4935
86.10	363
90.10	22
93.10	28
95.10	33
98.10	43
99.10	59
100.10	398
101.10	12
108.10	11
110.10	45
116.10	22
117.00	658
119.00	895
121.00	186
123.00	42
124.00	30
125.00	29
126.00	15
128.00	5
131.00	11
132.10	9
133.00	39
134.00	50
137.00	8
138.00	33
139.10	8
142.00	8
145.00	1
146.00	10
149.10	13
150.00	8
151.10	6
152.00	2
154.00	17
158.00	10
159.10	41
162.10	32
163.00	31
164.00	7
168.00	11
169.00	26
171.00	22
172.10	23
173.00	35
174.10	30
180.10	26
181.00	34
184.10	20
187.00	40
188.10	26
189.00	1
193.10	29
196.00	25
197.10	18
198.00	31
199.00	26
203.00	8
204.00	45
207.10	22
213.00	7
214.00	25
219.00	22
224.10	26
227.00	22
229.00	45
232.00	15
233.00	54
234.00	10
237.00	25
239.00	50
243.10	7
247.00	8
253.00	11
255.00	1
256.00	11
258.00	7
259.10	3
260.10	57
266.00	29
268.10	55
274.00	31
276.10	44
278.00	14
279.00	4
282.00	18
285.00	2
287.00	25
288.10	9
292.10	8
293.10	8
296.10	29
297.00	21
301.10	3
303.00	19
304.10	27
307.00	15
311.00	41
314.00	21
315.00	6
318.00	40
319.10	2
320.10	21
321.00	46
325.00	9
326.10	7
327.00	51
332.10	25
334.10	21
336.10	5
337.10	28
338.00	51
341.00	20
343.10	13
344.00	6
345.00	21
347.10	34
348.10	43
351.00	31
352.10	88
353.00	21
356.00	6
360.00	7
362.00	13
365.00	61
367.10	47
369.10	16
376.00	11
377.10	45
378.00	22
380.00	13
381.10	17
382.00	57
386.10	11
388.10	14
391.00	3
392.00	41
393.10	18
394.00	27
396.10	7
397.10	42
398.00	11
399.00	19
[MS Spectrum]	
# of Peaks	176
Raw Spectrum	2.138 -> 2.142 (scan : 84 -> 86)
Background	2.128 <-> 2.158 (scan : 78 <-> 96)
Base Peak	m/z 56.15 (Inten : 12,577)
Event#	1
m/z	Absolute Intensity
35.00	9
36.00	2
38.00	13
39.10	1500
40.05	506
41.10	8185
42.10	3250
43.10	7278
44.05	216
45.10	263
46.10	44
48.10	31
49.10	55
50.10	103
51.10	88
53.10	316
54.10	59
55.10	2113
56.15	12577
57.10	2112
58.10	12
62.10	66
65.10	12
67.10	37
70.10	147
71.10	1038
72.10	10
73.10	71
74.10	155
75.10	20
76.10	25
78.10	25
79.10	53
81.10	45
83.10	3
88.10	1
93.00	20
94.00	15
95.00	29
96.00	5
98.00	3
99.10	9
100.00	27
101.00	11
104.10	14
107.00	5
110.00	27
116.00	2
117.00	60
119.00	8
121.10	3
123.10	11
124.00	17
126.10	31
127.00	1
128.00	37
132.00	12
133.10	35
134.10	36
138.10	23
139.10	56
140.00	30
146.00	15
147.00	27
149.10	22
150.10	35
151.00	32
152.00	22
154.10	17
156.10	24
157.10	32
159.00	29
162.00	25
167.00	9
168.00	64
169.10	43
171.00	18
172.00	18
173.00	27
174.00	26
176.00	10
177.00	73
181.10	22
182.10	3
184.00	10
185.00	5
187.00	19
188.10	32
192.00	13
193.00	19
197.00	3
203.00	4
206.00	3
207.00	14
209.00	22
212.00	59
214.00	36
215.10	28
216.00	30
217.00	26
219.10	5
221.10	18
223.00	8
224.00	45
226.00	35
227.00	32
230.10	13
231.00	13
232.00	6
233.10	10
236.00	29
237.10	36
239.10	11
242.00	50
243.00	15
247.10	1
248.00	31
249.10	8
250.10	17
253.10	32
255.00	7
256.00	25
258.00	7
259.10	2
262.10	2
265.00	25
266.00	2
272.00	15
275.00	2
276.00	3
286.00	65
287.10	37
290.00	38
291.10	2
300.00	2
303.00	36
306.10	64
311.00	67
312.00	4
313.00	1
314.10	2
315.00	1
317.10	8
321.00	8
327.00	30
331.00	50
332.10	6
334.00	19
335.00	6
336.00	23
338.10	30
340.00	9
341.10	11
343.00	25
344.00	6
346.10	19
347.10	19
350.10	19
352.10	9
356.10	17
359.10	13
362.00	33
363.10	2
365.00	74
375.00	19
376.00	16
377.10	32
382.10	8
385.10	19
392.00	1
393.00	39
394.00	8
395.00	60
396.10	2
397.10	1
400.00	41
[MS Spectrum]	
# of Peaks	216
Raw Spectrum	2.175 -> 2.178 (scan : 106 -> 108)
Background	2.158 <-> 2.208 (scan : 96 <-> 126)
Base Peak	m/z 43.10 (Inten : 17,041)
Event#	1
m/z	Absolute Intensity
35.00	9
36.00	32
39.10	1785
40.05	217
41.10	7001
42.10	1262
43.10	17041
44.05	937
45.10	371
46.10	32
48.10	21
50.10	107
51.10	84
53.10	383
54.10	36
55.10	2275
56.15	5781
57.10	8028
58.10	206
62.10	20
63.10	19
64.10	29
65.10	30
66.10	4
67.10	50
69.10	337
70.15	7481
71.15	8723
72.10	318
74.10	9
75.10	14
76.10	2
80.10	53
81.10	91
82.10	5
84.10	220
85.10	741
86.10	79
87.10	8
89.10	71
90.10	17
91.10	13
95.10	78
96.10	27
97.10	1
98.10	33
99.10	18
100.25	608
101.10	43
102.20	6
103.10	27
105.20	4
106.10	12
108.20	5
109.10	17
110.10	24
113.20	10
115.10	29
117.10	3
118.10	15
122.10	49
123.10	23
124.10	21
128.10	2
129.10	41
131.20	14
132.10	16
133.20	26
134.10	42
135.20	39
136.10	26
138.20	6
139.20	49
142.10	20
143.10	2
144.20	30
145.10	17
146.10	8
147.10	107
149.10	90
150.10	12
151.20	5
153.10	52
158.10	36
159.10	11
161.10	28
164.20	63
165.10	7
166.10	9
169.10	46
172.10	51
174.10	61
175.10	52
176.10	2
177.10	46
178.10	15
179.10	43
180.10	37
181.20	2
185.10	8
188.10	47
189.20	47
190.10	3
192.20	31
194.10	61
196.10	24
198.10	1
199.10	2
200.10	18
203.10	40
204.20	14
205.10	17
208.20	42
210.10	12
211.10	59
213.20	15
214.10	48
215.10	46
218.10	58
219.20	37
220.10	6
221.10	16
223.20	4
224.10	16
226.10	6
227.10	30
228.10	12
230.20	17
232.20	6
238.10	36
239.20	54
243.20	43
244.10	25
246.10	26
247.10	32
249.10	36
250.10	32
251.10	8
252.20	29
253.10	30
255.10	25
257.20	38
259.10	15
262.20	38
263.10	26
264.10	25
267.10	54
271.10	4
274.10	15
276.20	8
277.20	13
280.10	29
281.10	46
283.10	7
285.20	12
286.10	13
288.10	4
290.10	30
291.10	30
292.20	2
293.10	45
294.10	13
297.20	47
300.10	4
303.10	42
306.10	12
308.20	10
310.10	5
311.10	15
312.20	9
313.10	42
318.10	46
322.10	41
324.10	4
325.10	20
326.10	2
327.10	54
328.10	23
330.10	53
332.20	17
333.10	23
335.20	10
337.20	1
338.10	6
340.20	9
342.10	16
343.20	17
346.10	46
348.20	3
351.10	47
353.10	17
354.20	27
355.10	12
356.10	2
357.20	54
358.20	13
359.10	4
361.10	7
362.10	24
363.10	6
365.10	25
371.20	19
372.10	18
374.10	15
375.10	20
382.10	57
385.20	1
388.10	69
390.20	21
391.20	20
393.20	43
396.10	6
397.10	38
398.10	2
399.20	14
400.10	3
[MS Spectrum]	
# of Peaks	187
Raw Spectrum	2.247 -> 2.250 (scan : 149 -> 151)
Background	2.218 <-> 2.278 (scan : 132 <-> 168)
Base Peak	m/z 43.10 (Inten : 12,154)
Event#	1
m/z	Absolute Intensity
35.00	79
36.00	43
38.00	127
39.10	1142
40.05	201
41.10	3203
42.10	1103
43.10	12154
44.05	509
45.10	2950
46.10	206
47.15	797
48.10	48
49.20	20
50.10	58
51.10	8
52.10	106
53.10	203
55.10	2498
56.15	2382
57.05	1366
58.10	883
59.10	9
60.20	71
61.10	15
63.10	16
65.10	29
66.10	5
67.10	216
68.20	154
69.15	1319
70.15	3956
71.15	2129
72.10	75
74.20	19
75.10	139
78.10	37
80.10	3
81.10	37
83.10	968
84.10	56
85.10	57
86.15	1754
87.20	87
89.10	26
90.20	4
91.10	126
95.10	56
97.10	55
98.10	125
99.20	5
100.10	18
101.10	5
103.10	29
105.10	30
108.10	74
109.10	25
110.20	10
111.10	15
112.10	31
113.10	19
114.20	9
117.20	39
118.10	18
119.10	9
121.10	65
125.10	49
126.20	9
127.10	81
128.10	9
130.10	17
131.10	27
132.10	29
133.10	6
134.10	7
137.10	34
138.10	20
139.20	37
141.10	49
144.10	15
145.20	5
147.10	8
149.10	21
151.10	7
154.10	22
159.20	19
160.20	7
162.20	2
163.10	11
165.10	10
169.10	21
171.10	20
176.10	28
179.20	8
181.10	15
184.10	37
185.20	17
186.10	39
190.20	5
191.20	16
192.20	40
193.20	37
200.10	42
202.20	46
207.20	39
214.10	14
217.10	5
220.10	55
221.10	17
222.10	4
224.10	37
227.10	7
228.10	1
232.20	21
233.20	35
237.10	25
239.10	41
241.10	10
243.10	33
244.10	17
246.10	18
249.20	21
251.10	17
252.10	75
253.20	6
257.10	24
258.10	11
261.20	20
264.20	77
269.20	26
271.10	8
272.10	14
277.10	42
279.20	19
280.10	10
282.20	25
286.20	3
288.20	17
289.10	15
290.20	4
291.10	27
292.20	20
294.10	3
298.10	11
299.10	13
303.10	10
312.10	18
314.20	13
315.20	5
316.20	17
318.10	22
319.20	8
323.10	61
324.10	7
325.10	20
326.20	25
330.10	27
333.10	32
334.10	21
337.10	27
339.10	4
341.10	9
346.10	5
348.20	24
350.20	27
354.20	10
357.10	7
358.10	2
362.10	16
363.10	14
366.10	21
369.20	2
374.10	34
377.20	6
379.20	4
382.20	42
383.20	18
384.10	3
386.10	43
389.20	14
390.20	26
391.20	1
392.10	45
393.20	14
394.20	11
396.10	34
398.20	7
[MS Spectrum]	
# of Peaks	169
Raw Spectrum	2.300 -> 2.303 (scan : 181 -> 183)
Background	2.278 <-> 2.315 (scan : 168 <-> 190)
Base Peak	m/z 44.10 (Inten : 33,467)
Event#	1
m/z	Absolute Intensity
35.00	21
37.00	55
38.10	473
39.10	3827
40.05	894
41.15	10945
42.10	3041
43.10	6485
44.10	33467
45.10	3065
46.10	78
48.10	40
49.10	81
50.10	222
51.10	287
52.10	110
53.10	598
54.10	80
55.15	807
57.10	9939
58.10	13055
59.10	563
62.10	19
63.10	81
66.10	9
67.15	448
68.10	203
73.20	6
75.10	9
78.20	45
81.20	59
86.15	688
87.20	26
88.10	15
89.10	28
91.10	41
92.10	6
95.10	3
96.20	42
97.20	47
102.10	50
105.10	11
107.20	3
109.10	26
111.20	9
116.10	32
117.10	9
119.10	10
123.20	10
126.10	9
127.10	49
129.20	20
131.20	3
133.10	7
134.20	8
137.10	40
138.10	11
141.20	63
142.10	9
143.10	41
146.20	53
149.10	24
150.10	18
152.10	72
158.10	46
160.20	12
162.10	7
166.10	39
169.10	2
172.20	6
174.20	24
176.20	4
178.10	25
179.20	12
180.10	19
182.10	1
184.10	26
186.20	14
187.10	34
191.20	10
194.10	3
196.20	6
198.10	47
201.10	11
202.10	31
205.20	27
211.20	11
212.10	45
213.10	27
215.10	76
216.10	34
220.20	3
221.10	5
224.10	34
225.20	28
226.10	20
227.20	36
228.10	2
232.10	15
235.10	28
237.10	14
240.10	6
243.10	3
246.10	27
247.10	14
250.10	16
251.20	20
252.10	10
255.20	28
256.10	42
257.10	3
261.20	49
262.10	23
264.10	3
265.20	28
266.20	6
269.10	22
270.10	11
272.20	14
275.10	20
280.20	24
281.10	30
285.20	18
288.10	7
289.10	5
291.10	60
298.10	13
299.10	20
300.10	60
301.10	26
304.10	20
309.20	13
310.10	13
312.20	9
315.10	13
317.10	22
318.20	9
321.20	13
323.10	33
325.20	12
330.10	48
334.20	7
340.20	39
342.20	8
344.10	7
345.20	64
346.20	10
348.10	43
356.10	24
357.20	25
358.10	2
359.10	5
362.10	20
364.10	43
365.10	23
366.10	11
369.20	21
371.20	6
374.10	4
379.20	13
380.10	26
382.20	5
383.20	2
388.10	32
390.10	3
394.10	24
397.10	29
398.20	19
400.10	16
[MS Spectrum]	
# of Peaks	160
Raw Spectrum	2.327 -> 2.330 (scan : 197 -> 199)
Background	2.315 <-> 2.362 (scan : 190 <-> 218)
Base Peak	m/z 43.10 (Inten : 42,446)
Event#	1
m/z	Absolute Intensity
38.10	197
39.10	4642
40.10	810
41.10	22134
42.15	8461
43.10	42446
47.10	94
49.10	15
51.10	113
52.10	133
53.10	783
54.10	307
55.10	4905
56.15	13720
57.15	21452
58.10	117
61.10	19
62.10	303
63.10	179
64.10	1
65.10	161
66.10	95
67.10	84
69.10	329
70.15	10671
71.15	21532
72.15	978
73.10	20
74.10	2
75.20	15
76.10	55
79.10	56
80.10	53
81.10	147
82.10	89
84.10	42
85.10	921
88.10	1
89.10	38
90.10	12
91.10	76
96.10	68
97.10	62
98.10	53
100.15	6687
101.20	375
102.20	27
103.20	40
105.20	105
109.20	15
111.20	50
113.20	27
115.20	10
119.20	13
122.20	13
126.20	24
127.20	45
130.20	20
136.20	11
137.20	39
146.20	1
150.20	22
152.20	5
158.20	26
160.20	5
161.20	39
163.20	26
165.20	1
166.20	24
169.20	72
171.20	31
178.20	21
180.20	3
190.20	11
195.20	24
196.20	47
201.20	13
202.20	9
207.20	87
209.20	9
210.20	11
211.20	4
212.20	2
213.20	24
215.20	11
221.20	44
225.20	44
227.20	13
230.20	23
231.20	10
237.20	19
240.20	12
246.20	45
247.20	11
249.20	2
250.20	21
251.20	35
253.20	7
256.20	12
257.20	29
259.20	13
260.20	12
261.20	17
265.20	75
268.20	14
270.20	8
274.20	5
275.20	13
277.20	8
279.20	15
282.20	17
283.20	12
285.20	10
287.20	3
291.20	19
296.20	5
297.20	16
298.20	37
300.20	41
301.20	27
309.20	21
313.20	5
314.20	9
318.20	15
320.20	3
322.20	2
323.20	25
327.20	1
328.20	5
329.20	2
330.20	4
331.20	9
333.20	34
339.20	10
340.20	101
342.20	40
343.20	19
345.20	4
346.20	32
348.20	42
349.20	39
351.20	4
355.20	9
356.20	53
357.20	5
359.20	32
364.20	22
365.20	54
369.20	16
370.20	27
371.20	29
373.20	16
374.20	2
375.20	44
379.20	18
383.20	19
390.20	11
395.20	23
399.20	10
400.20	16
[MS Spectrum]	
# of Peaks	212
Raw Spectrum	2.523 -> 2.527 (scan : 315 -> 317)
Background	2.495 <-> 2.562 (scan : 298 <-> 338)
Base Peak	m/z 83.15 (Inten : 45,017)
Event#	1
m/z	Absolute Intensity
37.00	51
38.15	375
39.10	8456
40.05	1398
41.10	20600
42.10	12925
43.10	4051
44.05	94
45.10	235
46.10	25
47.10	73
49.10	42
50.10	301
51.00	559
52.00	356
53.10	2599
54.15	2157
55.10	44477
56.10	12989
57.10	2606
58.10	53
61.10	21
62.10	100
63.10	99
64.10	35
65.10	650
66.10	111
67.10	2595
68.10	4415
69.10	9181
70.15	8975
71.10	435
72.10	39
73.10	85
74.10	18
75.10	56
76.10	26
77.10	548
79.10	273
80.10	20
81.15	998
82.15	8747
83.15	45017
84.10	3055
85.10	184
86.10	13
87.10	14
89.10	8
91.10	78
92.10	3
93.10	2
95.10	26
96.10	184
97.15	1349
98.15	20823
99.10	1712
100.10	25
102.10	45
103.10	54
104.10	12
109.10	17
110.10	6
111.10	24
112.10	35
115.10	61
117.10	9
118.10	23
119.10	10
122.10	6
123.10	6
125.10	6
129.10	56
132.10	31
133.10	3
136.10	31
140.10	51
144.10	14
145.10	8
146.10	27
148.10	31
157.10	5
159.10	21
162.10	42
168.10	7
170.10	33
173.10	17
175.10	23
178.10	4
179.10	7
180.10	35
182.10	16
184.10	21
185.10	32
186.10	13
189.10	1
194.10	39
200.10	37
202.10	10
203.10	2
204.10	5
206.10	15
209.10	50
211.10	18
212.10	31
213.10	18
214.10	44
219.10	23
220.10	11
221.10	20
223.10	49
224.10	14
225.10	42
227.10	6
228.10	21
229.10	6
230.10	38
232.10	12
233.10	2
234.10	59
235.10	12
236.10	32
238.10	14
239.10	9
240.10	1
241.10	18
242.10	1
243.10	22
244.10	30
245.10	24
246.10	70
249.10	57
250.10	46
254.10	58
260.10	31
263.10	20
265.10	7
267.10	3
270.10	3
272.10	9
274.10	9
275.10	19
279.10	1
283.10	1
284.10	6
285.10	34
288.10	10
291.10	22
294.10	50
296.10	27
298.10	9
300.10	25
304.10	6
305.10	30
308.10	2
309.10	17
310.10	14
311.10	6
312.10	32
313.10	29
314.10	1
317.10	1
318.10	21
319.10	5
320.10	11
322.10	13
324.10	47
325.10	5
326.10	34
329.10	36
330.10	23
331.10	9
332.10	19
333.10	15
335.10	16
336.10	31
337.10	2
338.10	31
339.10	54
341.10	22
342.10	27
343.10	42
345.10	4
346.10	26
351.10	31
352.10	16
353.10	65
354.10	1
355.10	44
359.10	8
360.10	78
361.10	43
364.10	6
365.10	19
366.10	22
367.10	16
372.10	53
373.10	27
374.10	22
375.10	5
376.10	24
377.10	10
379.10	23
382.10	15
384.10	24
386.10	44
389.10	28
390.10	17
392.10	23
394.10	24
396.10	1
397.10	23
400.10	11
[MS Spectrum]	
# of Peaks	183
Raw Spectrum	2.590 -> 2.593 (scan : 355 -> 357)
Background	2.565 <-> 2.625 (scan : 340 <-> 376)
Base Peak	m/z 43.10 (Inten : 3,704)
Event#	1
m/z	Absolute Intensity
37.00	6
38.00	87
39.10	964
40.05	580
41.10	3391
42.10	1491
43.10	3704
44.05	212
45.10	52
46.10	24
47.10	56
49.10	39
50.10	67
51.10	75
53.10	393
54.10	135
55.05	1496
56.15	1610
57.20	1071
58.10	1412
59.10	61
60.10	28
61.10	48
62.10	86
63.10	25
65.10	119
66.10	18
67.10	529
68.10	2553
69.15	3331
70.10	1621
71.10	45
75.10	15
77.10	15
80.10	49
81.10	72
83.10	193
85.15	476
87.20	40
88.20	11
89.20	27
90.20	8
95.20	1
96.10	13
97.10	19
98.20	397
99.20	70
100.20	352
101.10	34
103.10	48
104.20	23
105.10	29
107.10	79
108.20	24
111.20	2
114.10	12
115.10	19
116.10	12
117.20	1
120.20	51
124.20	29
125.10	68
130.10	35
131.10	11
133.10	54
134.10	2
135.10	40
136.20	12
137.10	26
138.20	10
147.10	36
151.10	28
156.10	57
157.20	17
159.10	1
161.10	29
162.10	14
163.20	2
166.10	13
167.10	29
168.10	1
169.10	18
172.10	15
180.10	18
183.20	3
186.10	31
190.10	33
199.20	14
200.20	16
201.10	1
202.20	14
204.10	5
210.10	26
211.10	6
213.20	24
214.10	34
216.20	11
221.10	57
223.20	4
225.20	17
226.10	15
229.20	9
232.10	15
233.10	2
235.10	11
237.20	7
240.10	40
246.10	4
248.10	31
253.10	32
255.10	4
258.10	15
259.20	7
267.10	39
271.10	3
272.10	32
274.20	12
276.10	12
279.10	31
280.20	4
282.10	1
283.20	1
289.20	3
297.20	12
298.10	22
300.10	32
302.20	9
303.20	40
307.20	24
308.20	38
312.20	28
313.20	50
315.10	7
316.20	16
317.10	28
318.20	31
320.10	84
321.10	10
322.20	5
325.20	48
326.20	17
327.20	28
328.10	27
329.10	25
330.10	20
331.10	34
332.20	19
333.10	20
335.20	6
336.20	17
344.10	46
346.20	43
350.10	13
352.10	37
353.10	36
355.10	32
356.10	2
357.20	21
362.10	9
363.10	6
365.20	28
366.10	24
367.10	38
368.20	18
370.10	8
371.10	36
372.10	2
374.10	25
375.20	75
376.20	8
378.10	33
379.10	14
380.20	24
381.10	36
383.10	40
384.10	53
385.10	28
394.10	41
395.10	13
396.20	5
397.10	22
398.20	6
400.10	5
[MS Spectrum]	
# of Peaks	216
Raw Spectrum	2.712 -> 2.715 (scan : 428 -> 430)
Background	2.688 <-> 2.755 (scan : 414 <-> 454)
Base Peak	m/z 43.10 (Inten : 29,354)
Event#	1
m/z	Absolute Intensity
36.00	13
37.00	143
38.10	543
39.10	3327
40.05	89
41.10	13172
42.10	3663
43.10	29354
44.05	1867
45.05	2321
46.00	184
47.00	212
48.00	12
49.00	92
50.10	100
52.00	25
53.00	302
55.10	1364
59.10	139
60.00	458
61.10	25
62.10	4
63.10	9
64.10	16
67.10	31
69.10	67
71.05	703
73.10	7973
74.10	395
75.10	2
76.10	10
77.10	118
78.10	25
80.10	47
81.10	60
82.10	42
84.10	51
87.10	250
88.10	2547
89.10	95
93.10	35
94.10	2
95.10	46
97.10	53
99.10	26
101.10	45
103.10	36
104.10	15
105.10	41
106.10	47
107.10	27
108.10	14
111.10	15
113.10	61
114.10	14
115.10	1
117.10	13
118.10	3
119.10	23
122.10	16
124.10	16
127.10	37
129.10	15
132.10	29
133.10	85
134.10	10
138.10	19
139.10	25
142.10	27
143.10	33
144.10	25
153.10	10
154.10	34
155.10	37
156.10	6
157.10	59
158.10	36
159.10	46
160.10	36
162.10	5
164.10	31
165.10	29
166.10	22
167.10	17
168.10	11
170.10	6
171.10	17
172.10	11
173.10	36
174.10	54
175.10	3
176.10	18
177.10	22
178.10	5
180.10	7
181.10	35
182.10	34
183.10	23
184.10	4
185.10	14
187.10	34
189.10	8
190.10	14
191.10	114
193.10	1
198.10	13
199.10	31
201.10	9
204.10	2
206.10	12
207.10	102
208.10	21
209.10	76
210.10	17
211.10	2
215.10	43
216.10	1
217.10	17
218.10	14
219.10	10
221.10	31
223.10	31
225.10	64
226.10	26
227.10	8
231.10	20
232.10	55
234.10	15
235.10	36
236.10	26
237.10	52
239.10	14
241.10	30
242.10	53
245.10	8
247.10	54
249.10	15
251.10	51
253.10	18
256.10	2
257.10	31
258.10	4
261.10	12
262.10	13
265.10	21
266.10	24
267.10	60
268.10	33
270.10	34
274.10	9
275.10	22
276.10	38
279.10	21
280.10	9
281.10	34
282.10	6
283.10	7
285.10	3
286.10	9
287.10	40
288.10	13
289.10	12
290.10	32
292.10	17
296.10	37
299.10	19
300.10	15
301.10	33
302.10	11
303.10	4
304.10	30
305.10	39
306.10	14
309.10	4
310.10	31
312.10	53
314.10	28
315.10	26
318.10	10
323.10	49
324.10	13
325.10	9
326.10	50
327.10	25
328.10	22
331.10	17
336.10	19
337.10	5
342.10	41
345.10	2
347.10	10
350.10	5
351.10	64
352.10	47
354.10	26
356.10	11
357.10	7
358.10	11
359.10	20
365.10	8
367.10	23
370.10	24
371.10	13
373.10	18
376.10	24
379.10	44
380.10	10
381.10	55
383.10	10
385.10	7
389.10	3
390.10	51
392.10	35
393.10	9
395.10	8
398.10	36
[MS Spectrum]	
# of Peaks	178
Raw Spectrum	2.800 -> 2.803 (scan : 481 -> 483)
Background	2.755 <-> 2.828 (scan : 454 <-> 498)
Base Peak	m/z 91.10 (Inten : 29,715)
Event#	1
m/z	Absolute Intensity
36.10	31
37.10	153
38.15	701
39.10	3720
40.05	1087
41.10	1138
42.10	3102
43.10	454
45.15	1937
46.10	565
47.10	13
48.10	47
49.10	115
50.10	941
51.10	1761
52.10	293
53.10	332
54.10	74
55.10	2204
56.10	146
58.10	45
61.10	434
62.05	713
63.05	2374
64.10	361
65.05	3874
66.10	417
67.10	105
69.10	129
70.10	1623
72.10	58
73.10	145
74.10	271
75.10	137
76.10	24
77.10	272
78.10	50
79.10	94
86.10	203
87.10	108
89.10	1331
90.15	297
91.10	29715
92.10	19922
93.10	1532
94.10	46
95.10	77
98.10	5
99.10	15
100.10	16
105.10	119
106.10	1
107.10	1
109.10	2
113.10	19
114.10	22
116.10	20
118.10	7
119.10	47
120.10	15
121.10	45
122.10	57
123.10	13
124.10	15
127.10	52
128.10	31
129.10	17
131.10	9
133.10	86
135.10	13
138.10	1
139.10	12
141.10	67
142.10	7
144.10	25
148.10	40
149.10	21
157.10	6
162.10	20
170.10	32
173.10	32
174.10	69
175.10	42
176.10	5
177.10	26
182.10	39
187.10	1
190.10	15
191.10	6
193.10	39
195.10	19
198.10	5
200.10	39
201.10	47
203.10	23
204.10	28
207.10	42
208.10	16
209.10	16
210.10	8
211.10	28
213.10	48
216.10	39
217.10	21
218.10	13
219.10	28
224.10	4
225.10	30
228.10	17
229.10	6
231.10	6
232.10	14
234.10	25
237.10	10
241.10	11
245.10	10
250.10	11
252.10	50
253.10	67
256.10	17
257.10	36
259.10	49
262.10	24
267.10	6
268.10	20
269.10	11
270.10	18
273.10	24
276.10	30
278.10	14
279.10	26
282.10	13
283.10	29
286.10	19
287.10	11
294.10	26
295.10	5
297.10	4
298.10	25
299.10	8
300.10	2
306.10	8
309.10	25
310.10	11
312.10	6
314.10	3
316.10	2
319.10	46
320.10	22
322.10	29
323.10	36
324.10	19
327.10	39
329.10	1
332.10	4
333.10	10
337.10	7
340.10	44
344.10	3
345.10	22
346.10	1
347.10	21
348.10	11
357.10	1
366.10	3
369.10	4
371.10	40
372.10	22
375.10	14
377.10	18
378.10	35
379.10	3
380.10	22
383.10	2
386.10	3
388.10	8
397.10	21
398.10	65
[MS Spectrum]	
# of Peaks	202
Raw Spectrum	2.833 -> 2.837 (scan : 501 -> 503)
Background	2.828 <-> 2.855 (scan : 498 <-> 514)
Base Peak	m/z 88.10 (Inten : 2,204)
Event#	1
m/z	Absolute Intensity
34.60	4
35.60	75
38.00	46
39.15	63
40.10	897
41.10	675
42.10	20
45.15	304
48.10	11
50.10	205
52.10	94
53.10	100
54.10	59
55.10	201
57.10	2184
58.10	139
59.10	690
61.00	110
62.10	62
63.00	70
65.00	39
67.00	3
68.00	18
69.10	100
71.10	63
72.10	9
73.10	49
74.10	26
77.10	121
79.10	87
80.00	9
81.10	78
85.10	234
87.10	179
88.10	2204
89.10	183
92.10	15
95.10	11
98.10	10
99.10	60
100.10	28
101.05	326
102.10	6
104.10	4
105.10	30
106.10	20
107.10	3
110.00	17
116.00	36
120.00	24
121.00	2
122.00	14
123.10	24
124.10	2
125.00	51
127.10	33
128.00	10
129.10	19
131.10	10
133.10	28
138.10	13
139.10	8
140.10	31
142.10	9
144.00	50
146.00	7
147.10	34
148.10	15
149.00	50
153.10	8
154.10	24
156.10	15
157.10	27
158.10	36
159.10	10
161.00	6
164.10	22
165.10	7
170.10	25
171.00	52
173.00	34
174.10	23
175.00	32
178.10	10
181.00	5
184.00	15
185.10	19
186.00	7
189.10	29
190.00	16
191.00	22
192.10	17
193.10	50
194.10	13
195.10	27
198.00	6
200.10	57
201.10	3
207.00	33
209.10	24
213.10	41
216.10	47
219.00	4
222.00	61
225.10	2
226.00	11
228.10	21
230.10	17
232.10	67
233.10	42
234.10	17
237.10	26
238.10	10
239.00	18
241.00	6
248.10	1
250.10	4
252.00	40
253.10	10
254.10	57
256.10	7
258.10	23
259.10	30
260.10	16
263.00	5
264.10	12
268.10	3
269.10	18
272.10	8
273.10	33
274.00	55
275.00	45
276.10	26
278.10	17
280.00	15
282.00	12
283.10	25
284.00	6
285.10	15
288.10	40
290.10	1
291.00	8
292.10	46
297.10	37
298.10	29
300.10	18
302.00	15
303.10	19
306.10	12
308.10	45
309.10	27
310.00	40
311.00	2
314.10	38
316.10	31
317.10	33
319.10	25
321.00	5
322.00	25
323.10	30
324.00	7
325.10	2
326.10	29
327.10	24
328.10	7
329.10	11
330.10	33
333.10	2
336.10	11
338.10	9
340.10	9
343.10	11
346.10	61
348.10	33
349.10	9
353.10	11
357.10	14
358.00	15
359.10	21
360.10	25
362.10	4
365.10	15
366.10	20
367.10	7
368.00	1
371.00	10
373.00	26
374.10	6
375.00	25
376.00	18
377.00	61
381.10	6
383.10	8
384.10	7
385.10	24
386.10	27
388.00	4
389.10	35
390.00	6
393.10	8
396.10	38
398.10	47
[MS Spectrum]	
# of Peaks	218
Raw Spectrum	2.983 -> 2.987 (scan : 591 -> 593)
Background	2.962 <-> 3.042 (scan : 578 <-> 626)
Base Peak	m/z 44.10 (Inten : 113,227)
Event#	1
m/z	Absolute Intensity
34.90	79
36.00	38
37.15	482
38.10	1417
39.10	27138
40.10	4516
41.10	89804
42.10	14304
43.10	65611
44.10	113227
45.10	21930
46.10	548
47.10	40
48.10	22
49.10	37
50.00	762
51.05	1154
52.10	269
53.10	3714
54.10	3083
55.10	19577
56.10	104466
57.10	67589
58.10	12279
59.10	1056
60.10	197
61.10	179
62.10	228
63.10	68
64.10	88
65.10	379
66.10	254
67.10	13034
68.05	877
69.10	1421
70.10	1011
71.10	8914
72.10	22525
73.15	1118
74.20	108
75.10	2
77.20	191
78.10	90
79.20	380
80.10	61
81.15	1590
82.10	17742
83.10	1463
85.05	586
86.10	43
87.10	14
88.10	48
89.10	24
91.10	42
93.10	16
94.10	63
97.10	47
98.10	284
99.10	241
100.10	335
101.10	99
103.10	2
105.10	48
107.10	58
108.10	31
109.10	43
110.10	87
111.10	4
114.10	4
115.10	68
117.10	73
119.10	3
120.10	12
121.10	67
122.10	17
123.10	3
124.10	11
125.10	32
126.10	41
127.10	36
128.10	7
129.10	16
130.10	37
132.10	26
133.10	4
136.10	29
137.10	20
138.10	23
140.10	19
141.10	6
143.10	10
146.10	1
147.10	12
151.10	35
154.10	2
156.10	37
159.10	30
160.10	83
162.10	21
164.10	9
168.10	32
169.10	35
170.10	8
171.10	26
172.10	29
173.10	36
177.10	12
179.10	61
183.10	68
186.10	24
188.10	10
189.10	3
191.10	15
194.10	8
195.10	8
197.10	31
198.10	36
200.10	109
202.10	31
203.10	11
204.10	27
206.10	36
207.10	89
208.10	66
210.10	11
211.10	27
212.10	35
213.10	12
214.10	5
216.10	30
220.10	38
221.10	42
222.10	6
223.10	27
224.10	21
227.10	47
228.10	4
231.10	51
232.10	3
233.10	32
235.10	46
236.10	58
238.10	16
239.10	51
242.10	27
243.10	38
244.10	27
245.10	70
247.10	93
248.10	29
250.10	6
253.10	91
254.10	17
255.10	1
259.10	16
260.10	42
261.10	15
262.10	34
269.10	21
271.10	54
272.10	41
275.10	10
277.10	24
278.10	12
279.10	4
281.10	14
282.10	17
284.10	24
285.10	7
289.10	31
295.10	7
306.10	31
308.10	37
310.10	3
311.10	16
320.10	14
322.10	8
323.10	27
325.10	12
326.10	6
327.10	13
328.10	12
333.10	29
334.10	16
338.10	11
339.10	7
340.10	1
344.10	2
346.10	14
348.10	13
350.10	87
351.10	26
352.10	21
353.10	42
354.10	2
355.10	42
356.10	10
357.10	40
358.10	86
361.10	2
362.10	26
366.10	6
367.10	18
368.10	10
371.10	14
372.10	22
374.10	29
375.10	6
378.10	18
379.10	1
381.10	12
383.10	21
385.10	12
391.10	11
393.10	7
395.10	24
396.10	17
397.10	7
[MS Spectrum]	
# of Peaks	216
Raw Spectrum	3.073 -> 3.077 (scan : 645 -> 647)
Background	3.042 <-> 3.112 (scan : 626 <-> 668)
Base Peak	m/z 207.00 (Inten : 50,940)
Event#	1
m/z	Absolute Intensity
35.90	11
37.00	62
37.90	79
39.10	391
40.05	32
41.10	2126
42.15	255
43.10	10314
44.10	198
45.10	176
46.10	8
47.10	169
48.10	19
49.10	17
51.10	5
52.10	67
54.10	57
55.10	817
56.15	5498
57.10	55
58.10	259
59.10	232
61.10	2066
62.10	34
66.10	85
67.10	144
68.10	52
71.10	166
72.10	250
73.05	2255
74.10	154
75.10	929
76.10	23
79.10	72
81.00	418
82.10	784
83.10	80
86.00	114
87.10	1161
87.95	372
89.00	670
90.10	70
94.10	27
95.10	77
96.10	7905
97.05	1150
98.10	30
99.10	33
101.10	44
102.10	275
103.05	843
104.00	191
105.00	105
106.10	55
107.00	96
109.10	11
111.00	4
115.10	709
116.20	141
117.10	286
119.05	1228
120.10	225
121.10	297
122.10	64
123.10	33
124.10	59
125.10	16
128.00	2
130.10	45
131.00	122
132.10	158
133.10	3480
134.10	524
135.10	368
138.10	65
141.10	44
143.10	79
145.10	71
147.00	437
148.10	163
149.10	266
152.10	45
153.10	36
155.10	62
157.10	2
159.00	20
160.10	82
161.10	525
161.90	148
162.90	606
163.90	76
165.00	433
166.00	132
168.10	4
170.00	38
172.00	9
174.90	46
175.90	373
176.95	1553
177.90	186
178.90	217
180.00	172
181.00	36
181.90	24
186.00	24
189.00	112
190.00	56
190.95	4812
191.95	1142
193.00	1495
194.00	307
195.00	165
196.00	34
197.00	16
198.00	17
200.00	16
203.00	81
204.00	3
205.00	60
206.00	144
207.00	50940
207.95	10331
209.00	5753
210.00	691
211.00	278
212.00	55
214.00	25
215.00	5
217.00	58
218.00	4
220.00	12
221.00	24
223.00	30
224.00	28
230.00	12
231.00	1
233.00	22
235.00	2
236.00	24
241.00	1
243.00	2
244.00	20
245.00	14
246.00	29
248.00	5
249.00	42
253.00	34
254.00	22
255.00	26
256.00	12
257.00	20
260.00	52
261.00	49
263.00	38
265.00	17
266.00	15
269.00	13
270.00	3
271.00	12
274.00	36
279.00	32
280.00	8
283.00	33
286.00	1
289.00	62
290.00	5
294.00	20
296.00	21
297.00	13
298.00	17
301.00	28
304.00	4
305.00	2
306.00	17
309.00	1
310.00	11
311.00	7
313.00	15
318.00	30
319.00	42
320.00	4
321.00	31
324.00	46
325.00	40
329.00	42
333.00	5
334.00	18
335.00	16
340.00	15
341.00	19
342.00	3
343.00	49
346.00	12
347.00	27
348.00	34
350.00	40
351.00	3
352.00	2
353.00	39
356.00	20
360.00	52
364.00	28
366.00	20
367.00	30
372.00	25
374.00	27
375.00	21
382.00	9
388.00	35
389.00	61
390.00	59
393.00	47
394.00	2
395.00	41
398.00	41
399.00	4
[MS Spectrum]	
# of Peaks	196
Raw Spectrum	3.325 -> 3.328 (scan : 796 -> 798)
Background	3.312 <-> 3.352 (scan : 788 <-> 812)
Base Peak	m/z 74.10 (Inten : 4,166)
Event#	1
m/z	Absolute Intensity
35.00	21
35.70	13
37.00	17
39.10	494
40.10	151
41.10	2421
44.10	1009
45.10	380
46.10	58
48.10	1
49.10	24
50.10	10
52.10	20
53.10	106
54.10	25
55.10	850
56.10	945
57.15	3366
58.10	43
59.10	156
62.10	26
63.10	33
66.10	116
68.10	183
69.10	156
73.10	462
74.10	4166
75.10	79
76.10	2
78.10	3
79.10	100
83.10	51
84.10	12
85.10	89
86.10	49
87.10	1150
88.10	95
91.10	53
92.10	10
93.10	61
94.10	63
96.10	70
97.10	86
99.10	7
101.10	155
102.10	4
104.10	6
106.10	37
107.10	27
113.10	8
114.10	22
116.10	19
117.10	47
118.10	17
121.10	24
122.10	18
124.10	15
126.10	104
127.10	79
130.10	60
131.10	47
136.10	41
137.10	8
138.10	60
140.10	42
142.10	30
143.10	6
146.10	8
147.10	3
150.10	12
151.10	70
153.10	9
155.10	12
156.10	18
160.10	56
162.10	33
163.10	5
165.10	25
166.10	41
167.10	43
168.10	22
170.10	27
171.10	15
172.10	39
174.10	6
175.10	2
176.10	15
179.10	11
181.10	2
182.10	4
183.10	48
185.10	6
186.10	44
192.10	15
193.10	12
197.10	45
198.10	33
205.10	60
210.10	55
211.10	56
212.10	9
215.10	19
217.10	49
219.10	15
220.10	34
222.10	7
223.10	4
230.10	14
231.10	13
233.10	87
234.10	6
235.10	55
236.10	9
240.10	21
244.10	2
245.10	19
246.10	12
248.10	2
252.10	1
255.10	4
256.10	52
257.10	25
258.10	9
259.10	37
260.10	31
261.10	9
262.10	10
265.10	5
266.10	15
270.10	1
273.10	9
275.10	1
282.10	16
285.10	13
286.10	36
288.10	4
289.10	11
290.10	6
291.10	9
292.10	15
297.10	12
299.10	5
300.10	13
304.10	26
306.10	26
308.10	5
309.10	1
310.10	3
311.10	21
312.10	11
314.10	22
316.10	1
317.10	4
318.10	36
320.10	17
321.10	55
322.10	24
325.10	40
326.10	21
327.10	21
328.10	22
329.10	39
330.10	32
335.10	3
337.10	20
340.10	5
341.10	93
342.10	39
343.10	12
345.10	4
348.10	11
349.10	37
350.10	34
353.10	15
354.10	46
356.10	24
360.10	10
361.10	1
364.10	30
365.10	52
366.10	16
367.10	20
372.10	19
378.10	18
380.10	1
384.10	24
387.10	3
389.10	12
390.10	18
394.10	2
395.10	3
396.10	30
397.10	63
398.10	63
399.10	3
400.10	34
[MS Spectrum]	
# of Peaks	229
Raw Spectrum	3.440 -> 3.443 (scan : 865 -> 867)
Background	3.408 <-> 3.462 (scan : 846 <-> 878)
Base Peak	m/z 91.10 (Inten : 53,938)
Event#	1
m/z	Absolute Intensity
36.00	14
37.00	94
38.10	585
39.10	3650
41.10	873
42.10	148
43.10	874
45.05	65
47.10	52
48.10	103
49.10	18
50.05	1674
51.10	4936
52.10	1617
53.10	534
54.10	80
57.15	523
61.20	50
62.15	481
63.05	1883
64.10	404
65.10	4914
66.10	299
68.10	20
71.15	392
72.10	5
73.10	111
74.10	481
75.10	372
76.15	452
77.10	4546
78.10	3713
79.10	1905
80.10	116
82.10	68
83.10	46
84.10	254
85.10	208
86.10	155
87.10	96
88.10	33
89.10	933
90.15	629
91.10	53938
92.10	4098
93.10	221
94.10	23
97.10	24
98.10	132
99.10	46
100.10	39
101.10	58
102.10	242
103.10	1818
104.00	667
105.15	2661
106.15	15836
107.10	1368
108.10	105
109.10	58
110.10	17
113.10	67
114.10	77
115.10	22
117.10	10
118.10	5
119.10	54
120.10	4
123.10	19
124.10	77
125.10	19
126.10	94
127.10	53
128.10	33
130.10	18
131.10	8
133.10	6
134.10	12
136.10	41
137.10	51
138.10	7
140.10	8
142.10	15
143.10	30
144.10	4
149.10	12
151.10	18
152.10	41
153.10	55
154.10	86
155.10	7
156.10	5
157.10	21
158.10	34
162.10	31
163.10	20
167.10	58
168.10	5
172.10	18
173.10	15
177.10	35
179.10	3
183.10	40
184.10	45
186.10	8
187.10	7
188.10	33
192.10	24
195.10	28
196.10	14
197.10	56
202.10	4
203.10	4
204.10	1
205.10	57
207.10	119
208.10	44
210.10	9
212.10	30
213.10	40
214.10	13
217.10	27
218.10	16
220.10	1
221.10	69
223.10	42
224.10	25
226.10	31
227.10	1
228.10	15
229.10	38
230.10	23
231.10	41
232.10	21
235.10	12
237.10	11
240.10	9
241.10	19
243.10	18
245.10	14
246.10	21
247.10	3
248.10	13
250.10	11
251.10	21
254.10	1
255.10	49
256.10	13
258.10	41
262.10	30
263.10	20
265.10	13
266.10	32
267.10	36
268.10	35
269.10	27
270.10	44
273.10	22
274.10	15
275.10	28
277.10	7
278.10	12
279.10	30
280.10	9
281.10	14
282.10	1
283.10	53
285.10	21
286.10	26
289.10	21
290.10	10
291.10	41
292.10	44
294.10	9
295.10	10
299.10	8
300.10	13
301.10	11
303.10	26
306.10	22
307.10	35
308.10	37
312.10	36
316.10	25
320.10	15
324.10	28
327.10	55
328.10	53
330.10	32
331.10	15
332.10	28
333.10	5
338.10	11
340.10	63
341.10	70
343.10	22
346.10	21
348.10	9
349.10	43
350.10	20
351.10	19
352.10	15
355.10	31
356.10	30
357.10	39
359.10	37
360.10	6
364.10	15
365.10	55
367.10	4
368.10	63
370.10	27
371.10	35
374.10	11
376.10	49
379.10	26
380.10	21
382.10	24
383.10	12
387.10	29
390.10	32
391.10	9
392.10	23
394.10	15
395.10	18
397.10	14
398.10	3
399.10	29
400.10	42
[MS Spectrum]	
# of Peaks	198
Raw Spectrum	3.498 -> 3.502 (scan : 900 -> 902)
Background	3.465 <-> 3.535 (scan : 880 <-> 922)
Base Peak	m/z 91.10 (Inten : 51,071)
Event#	1
m/z	Absolute Intensity
35.00	19
36.00	10
37.00	244
38.10	588
39.10	4953
40.10	297
41.10	302
42.10	115
43.10	41
44.10	5
49.10	83
50.10	1105
51.05	5006
52.10	2814
53.10	1239
54.10	97
59.10	7
60.10	44
61.10	234
62.10	802
63.10	2527
64.15	522
65.10	3102
66.10	579
68.10	34
70.10	254
74.10	613
75.10	334
76.10	445
77.10	6260
78.10	3158
79.10	4229
80.10	230
81.10	50
82.10	64
84.10	14
85.10	243
86.10	32
87.10	12
88.10	57
89.10	1368
90.10	276
91.10	51071
92.10	3648
93.10	275
98.10	69
100.10	25
101.10	68
102.15	551
103.10	2807
104.10	949
105.15	9328
106.15	24181
107.15	1820
108.20	101
112.20	6
114.20	32
116.20	22
117.20	3
122.20	22
123.20	70
124.20	23
127.20	29
129.20	8
130.20	25
132.20	18
136.20	38
140.20	40
145.20	9
146.20	16
148.20	13
151.20	50
152.20	53
156.20	22
158.20	25
160.20	23
172.20	29
173.20	12
174.20	15
175.20	11
177.20	32
178.20	14
180.20	19
182.20	1
183.20	6
184.20	8
188.20	22
190.20	20
191.20	5
194.20	22
196.20	4
197.20	24
198.20	1
202.20	10
208.20	9
210.20	16
212.20	43
213.20	28
214.20	14
216.20	15
217.20	37
220.20	20
222.20	30
224.20	4
225.20	26
226.20	2
227.20	30
228.20	38
230.20	56
231.20	16
232.20	34
236.20	44
238.20	2
241.20	12
242.20	2
244.20	11
245.20	15
247.20	20
248.20	7
252.20	10
253.20	6
255.20	27
259.20	15
261.20	23
271.20	25
273.20	26
274.20	11
275.20	13
277.20	21
279.20	2
282.20	29
285.20	33
286.20	2
288.20	6
289.20	42
290.20	2
296.20	4
297.20	6
299.20	11
300.20	26
301.20	19
303.20	7
305.20	6
307.20	29
308.20	3
310.20	27
312.20	38
315.20	8
316.20	37
317.20	15
319.20	30
320.20	5
322.20	39
323.20	18
326.20	24
331.20	11
333.20	33
334.20	29
335.20	4
336.20	11
338.20	16
340.20	1
343.20	7
346.20	8
349.20	20
350.20	27
351.20	2
353.20	1
356.20	7
357.20	2
358.20	54
359.20	4
360.20	12
361.20	22
362.20	15
363.20	17
364.20	35
366.20	35
369.20	23
370.20	4
372.20	8
374.20	26
375.20	2
378.20	15
380.20	33
381.20	8
383.20	38
384.20	20
385.20	17
388.20	21
389.20	50
390.20	56
392.20	29
393.20	11
394.20	4
395.20	69
397.20	9
400.20	11
[MS Spectrum]	
# of Peaks	179
Raw Spectrum	3.583 -> 3.587 (scan : 951 -> 953)
Background	3.572 <-> 3.618 (scan : 944 <-> 972)
Base Peak	m/z 43.10 (Inten : 12,955)
Event#	1
m/z	Absolute Intensity
35.00	18
36.00	18
37.00	33
38.00	23
39.10	996
40.05	48
41.10	821
42.15	486
43.10	12955
44.05	438
45.10	135
47.00	11
50.10	7
55.10	500
56.10	79
58.10	9547
59.10	1880
60.10	121
61.10	62
63.10	14
64.10	18
67.10	123
68.10	35
71.10	1944
72.15	466
73.10	55
76.10	11
78.10	102
79.20	45
82.10	7
85.20	309
86.10	57
90.10	28
92.10	42
97.20	41
99.10	422
100.20	4
101.10	34
107.10	28
108.20	32
109.10	2
111.10	14
112.20	36
114.10	418
115.10	69
117.10	8
127.10	13
129.20	6
130.20	51
132.20	16
133.20	2
136.20	59
137.10	60
139.10	9
141.10	19
142.10	11
143.10	44
145.10	1
147.10	20
149.10	51
150.10	5
152.10	11
153.20	13
156.10	54
158.10	60
161.10	16
164.20	10
165.20	29
166.20	14
167.10	1
168.20	33
169.10	1
171.10	41
172.10	1
173.20	31
178.10	47
179.20	45
180.20	11
182.10	10
183.20	4
185.20	18
188.10	7
189.10	34
191.10	2
195.10	2
197.10	26
200.10	22
201.10	20
202.20	17
207.10	4
208.20	29
209.10	23
211.10	20
216.10	17
217.10	71
220.10	9
222.10	12
223.10	5
227.10	7
230.10	9
235.10	9
236.10	3
241.10	50
242.10	6
246.10	19
248.10	1
251.10	36
252.10	9
255.10	3
258.10	2
260.10	37
261.20	37
262.20	35
266.20	16
268.10	34
271.10	31
276.10	24
278.10	37
279.20	14
280.10	43
282.10	44
284.10	5
286.20	12
288.10	25
289.20	7
290.20	19
291.20	19
292.10	15
293.10	17
296.10	30
298.10	39
300.10	14
301.10	38
307.10	15
309.10	38
310.10	29
315.10	6
318.10	6
321.10	13
322.10	10
323.10	23
324.10	20
325.10	17
326.10	53
327.10	35
328.10	19
333.10	16
335.10	12
338.10	35
341.10	11
344.20	11
345.10	17
346.20	29
347.20	58
350.10	5
354.10	19
355.20	32
356.10	22
357.10	24
358.20	32
361.10	18
363.10	42
365.20	33
368.10	8
369.20	13
371.20	21
374.20	34
375.20	4
376.20	17
379.20	19
380.20	20
384.10	10
386.10	10
387.20	8
389.20	6
397.10	4
398.20	7
399.20	4
400.20	2
[MS Spectrum]	
# of Peaks	220
Raw Spectrum	3.645 -> 3.648 (scan : 988 -> 990)
Background	3.618 <-> 3.708 (scan : 972 <-> 1026)
Base Peak	m/z 104.10 (Inten : 31,813)
Event#	1
m/z	Absolute Intensity
36.00	39
37.00	254
38.10	679
39.10	3069
40.05	40
41.10	63
42.10	91
46.00	29
48.10	13
49.10	297
50.10	3465
51.10	9730
52.10	3670
53.10	443
55.10	142
59.10	159
60.10	18
61.10	219
62.10	817
63.10	2101
64.10	342
65.10	397
67.10	23
69.10	140
70.10	122
73.10	251
74.05	1252
75.10	1164
76.10	1403
77.10	7310
78.10	15563
79.10	954
81.10	11
85.10	52
86.10	83
87.10	104
88.10	47
89.10	473
90.10	50
91.15	734
92.10	139
94.10	90
95.10	18
96.10	1
97.10	503
98.10	195
99.10	171
101.10	336
102.10	2452
103.10	14002
104.10	31813
105.15	2854
106.15	462
107.20	21
115.20	2
117.20	52
119.20	31
122.20	56
125.10	4
126.10	90
127.10	28
128.10	26
130.10	13
131.10	26
132.10	9
134.10	14
136.10	9
139.20	49
142.20	31
143.10	46
146.10	23
150.10	5
152.20	1
153.10	30
155.20	5
156.10	10
157.10	7
158.10	54
160.10	3
167.10	28
168.10	37
169.20	57
170.20	33
171.10	29
173.10	46
174.20	59
175.10	2
178.10	6
179.20	40
181.10	9
183.10	10
184.20	86
187.10	27
190.10	18
192.20	24
193.20	11
195.10	25
197.10	28
198.20	4
199.10	41
200.20	9
201.10	2
203.10	34
204.10	55
205.10	32
208.20	25
209.20	5
210.20	1
211.10	32
213.20	45
214.20	7
216.10	9
217.20	17
222.10	51
223.20	39
225.20	34
227.10	35
228.10	13
229.20	22
230.20	22
231.20	22
233.10	17
234.20	25
236.20	37
237.10	41
241.10	15
242.20	21
244.10	39
246.10	8
247.20	17
250.20	8
252.20	20
253.20	1
254.10	37
255.20	5
256.10	15
258.10	22
260.10	19
261.10	25
264.20	7
266.10	7
267.10	22
268.10	10
269.10	44
270.20	30
271.10	5
272.10	37
273.20	26
274.20	26
276.10	29
277.20	36
279.20	5
282.10	26
284.10	22
286.10	51
287.10	29
288.20	7
291.10	49
292.10	17
293.20	61
294.10	56
296.10	30
297.20	5
299.10	31
302.10	22
303.20	4
305.10	14
308.20	5
311.20	3
312.20	46
313.20	8
316.20	5
317.10	18
318.10	5
319.10	64
321.10	49
322.20	27
324.10	26
325.10	27
326.20	12
329.20	20
332.20	5
335.20	29
336.10	2
337.10	45
338.20	36
340.10	4
341.10	33
344.20	29
345.20	22
347.10	27
348.10	20
354.10	9
357.10	14
358.10	18
360.10	11
361.10	20
362.10	7
364.10	35
365.20	2
366.10	48
367.10	3
373.20	43
374.10	48
376.10	27
378.20	8
379.10	29
381.10	18
383.10	14
386.20	23
388.20	31
389.10	16
392.20	14
393.20	2
394.10	7
395.10	16
396.10	13
397.20	14
398.10	19
400.10	30
[MS Spectrum]	
# of Peaks	238
Raw Spectrum	3.955 -> 3.958 (scan : 1174 -> 1176)
Background	3.908 <-> 3.992 (scan : 1146 <-> 1196)
Base Peak	m/z 93.15 (Inten : 88,067)
Event#	1
m/z	Absolute Intensity
35.00	62
37.00	59
38.15	646
39.10	10553
40.10	1602
41.10	15135
42.10	1374
43.15	6755
44.10	231
45.10	1365
46.10	94
47.10	8
49.10	21
50.05	701
51.10	3193
52.10	1577
53.10	6207
54.10	845
55.10	5625
56.10	866
57.10	1848
58.15	761
59.10	520
61.10	70
62.10	255
63.10	1207
64.10	154
65.10	4454
66.10	902
67.10	7525
68.10	3448
69.15	973
70.10	272
71.20	64
72.10	52
74.10	78
75.20	346
76.10	206
77.10	20937
78.10	3260
79.10	18697
80.10	8356
81.15	2872
82.10	556
83.10	175
84.10	14
86.10	195
87.15	645
88.10	43
89.10	330
90.10	149
91.10	35854
92.10	34790
93.15	88067
94.15	8017
95.15	1040
96.10	64
99.10	25
101.10	52
102.10	142
103.10	1623
104.10	395
105.10	7659
106.15	1535
107.15	3618
108.15	888
109.10	221
112.10	25
115.20	358
116.10	71
117.10	212
119.10	1449
120.20	257
121.20	8432
122.20	798
123.20	125
124.20	59
125.20	31
126.20	31
127.20	75
128.20	58
129.20	9
130.20	37
132.20	14
133.20	71
134.20	164
135.20	61
136.20	7023
137.25	806
138.20	50
139.20	46
140.20	31
142.20	4
143.20	8
146.20	52
149.20	43
150.20	22
152.20	11
153.20	17
154.20	46
156.20	36
157.20	2
160.20	10
161.20	20
162.20	23
163.20	7
165.20	10
166.20	5
170.20	32
171.20	5
172.20	33
173.20	64
174.20	75
175.20	59
176.20	42
178.20	2
180.20	4
181.20	22
185.20	18
189.20	44
190.20	10
191.20	3
195.20	2
196.20	6
197.20	25
199.20	14
204.20	50
205.20	14
208.20	4
211.20	10
212.20	35
216.20	8
217.20	10
218.20	30
219.20	6
221.20	21
223.20	2
226.20	9
227.20	39
229.20	28
231.20	5
232.20	1
233.20	56
239.20	31
240.20	9
242.20	31
243.20	20
244.20	42
245.20	7
246.20	2
249.20	17
250.20	17
252.20	10
253.20	4
254.20	23
255.20	11
257.20	33
258.20	8
259.20	20
262.20	9
264.20	14
265.20	15
269.20	4
277.20	46
278.20	25
281.20	31
285.20	41
290.20	44
292.20	44
293.20	1
294.20	4
297.20	18
298.20	55
299.20	12
300.20	2
302.20	24
303.20	27
306.20	17
308.20	2
309.20	10
311.20	6
312.20	28
313.20	54
314.20	32
315.20	28
317.20	18
321.20	19
324.20	2
325.20	8
326.20	26
327.20	5
328.20	13
329.20	16
331.20	17
332.20	4
334.20	16
337.20	21
338.20	8
339.20	11
340.20	3
342.20	21
343.20	54
344.20	36
347.20	17
348.20	14
349.20	12
351.20	39
352.20	46
356.20	43
357.20	44
359.20	55
360.20	11
362.20	7
365.20	42
367.20	41
368.20	6
369.20	45
371.20	4
372.20	17
373.20	45
375.20	33
380.20	12
381.20	14
382.20	19
383.20	19
385.20	31
386.20	18
388.20	19
389.20	25
390.20	23
393.20	56
394.20	16
395.20	25
396.20	30
397.20	39
398.20	14
399.20	4
400.20	13
[MS Spectrum]	
# of Peaks	190
Raw Spectrum	4.112 -> 4.115 (scan : 1268 -> 1270)
Background	4.092 <-> 4.135 (scan : 1256 <-> 1282)
Base Peak	m/z 77.10 (Inten : 19,283)
Event#	1
m/z	Absolute Intensity
36.00	76
37.15	500
38.05	912
39.10	1570
40.10	141
42.00	100
46.00	92
48.00	55
49.15	436
50.10	4309
51.10	9716
52.05	2024
53.05	257
54.10	4
55.15	93
56.05	122
57.10	147
58.10	238
60.10	15
61.10	168
62.10	355
63.10	600
65.10	98
68.10	15
69.10	71
70.10	66
73.10	119
74.10	1314
75.10	673
76.10	924
77.10	19283
78.10	3203
79.05	373
80.10	51
82.10	47
85.10	496
86.10	136
87.10	3
88.10	7
89.10	138
90.10	74
93.10	94
94.10	25
95.10	41
96.10	77
97.10	2
98.10	3
100.10	34
102.10	29
103.10	104
104.10	34
105.10	19229
106.10	18008
107.15	1531
108.10	167
112.20	33
115.20	45
120.15	521
138.10	47
139.20	43
140.10	7
142.10	31
143.10	9
144.10	38
145.10	2
148.10	23
150.10	65
151.10	9
152.20	21
153.20	11
154.20	57
155.10	37
156.10	51
157.10	10
160.20	10
166.20	13
167.20	12
170.20	41
172.20	14
174.10	16
175.10	11
177.20	47
179.10	24
181.10	14
182.20	23
186.20	19
189.10	44
190.10	16
192.10	44
196.20	28
197.10	28
200.10	60
203.10	23
208.10	30
210.20	50
211.10	22
212.10	20
215.20	11
216.10	46
217.20	13
219.20	47
221.10	30
224.10	15
228.10	9
230.10	24
231.10	55
233.20	13
235.20	29
236.10	51
237.20	28
239.20	36
241.20	3
245.20	4
247.10	21
255.20	24
256.20	45
258.10	43
260.10	61
264.10	15
269.20	30
270.20	15
271.20	3
272.20	9
274.20	32
277.10	28
278.10	8
279.10	17
280.10	11
284.20	10
287.10	1
289.20	9
291.10	17
294.20	20
295.10	16
296.10	2
298.10	18
299.10	72
300.10	22
302.10	15
304.10	33
305.10	22
308.10	43
309.10	11
313.10	29
314.10	5
315.20	9
317.20	15
318.10	37
319.20	3
320.10	32
321.10	10
322.10	31
323.20	6
326.10	13
330.10	41
331.10	5
333.20	14
335.20	71
336.20	42
338.20	46
339.10	7
342.10	42
343.20	2
344.20	45
346.10	53
348.10	99
352.10	44
353.10	11
355.20	10
357.10	33
358.20	34
360.20	27
363.10	9
364.20	10
365.10	11
367.10	64
369.10	3
371.20	41
372.10	13
373.10	7
374.20	21
378.10	24
380.10	22
381.10	3
382.10	13
388.10	28
391.10	27
392.20	14
394.20	6
396.10	1
[MS Spectrum]	
# of Peaks	210
Raw Spectrum	4.147 -> 4.150 (scan : 1289 -> 1291)
Background	4.135 <-> 4.172 (scan : 1282 <-> 1304)
Base Peak	m/z 281.00 (Inten : 29,777)
Event#	1
m/z	Absolute Intensity
35.00	83
37.00	47
39.10	114
42.10	240
45.10	730
46.10	53
47.10	31
48.10	18
54.10	45
55.15	320
56.15	310
59.15	423
61.10	19
62.20	3
65.10	83
69.10	221
70.10	15
73.10	3831
74.10	259
75.10	595
76.10	80
78.10	37
82.10	95
84.10	191
85.10	139
86.10	1
87.10	234
88.10	106
89.10	110
90.10	65
91.10	8
93.10	14
95.10	129
96.10	463
97.10	53
101.10	14
102.10	5
103.10	334
104.00	149
107.10	27
108.10	48
110.10	102
111.10	355
112.10	234
115.10	172
116.10	19
117.10	261
118.10	317
119.05	573
120.10	257
121.10	107
125.10	1625
126.05	416
127.10	44
128.10	34
131.10	139
132.10	44
133.10	4071
134.00	866
135.10	86
136.00	32
138.00	28
139.10	29
140.10	60
142.10	13
143.10	11
145.10	78
147.10	130
149.00	276
151.10	17
152.00	14
155.10	19
156.00	23
159.10	61
160.10	22
161.10	185
163.00	435
164.10	70
165.10	436
166.00	17
167.00	150
172.10	13
175.00	15
176.00	190
176.90	600
177.90	127
178.90	618
179.90	71
180.90	31
181.90	2
182.90	45
183.90	12
184.90	11
187.90	9
189.00	287
190.00	74
191.00	3113
192.00	489
192.90	1575
193.90	246
194.90	237
195.90	49
199.00	8
199.90	23
202.90	328
203.90	68
204.95	896
206.00	293
206.95	1876
207.95	491
209.00	242
210.00	60
211.00	9
212.00	10
215.90	27
217.00	65
219.00	51
220.90	106
223.00	65
226.00	10
229.90	8
231.00	30
234.00	32
234.90	449
235.90	50
237.00	47
238.90	51
240.00	22
241.00	2
242.00	18
246.90	32
247.90	33
248.95	3156
249.85	720
250.90	1309
252.00	324
253.00	95
254.90	63
256.00	12
256.90	4
259.90	25
261.00	29
264.00	30
265.00	3562
265.95	1311
267.00	694
268.00	227
269.00	75
270.00	4
271.00	16
275.00	31
277.00	33
280.00	42
281.00	29777
282.05	7679
283.05	4873
284.05	933
285.00	366
289.00	16
290.00	1
295.00	12
299.00	40
302.00	35
304.00	39
305.00	58
307.00	8
310.00	37
312.00	3
313.00	11
314.00	22
316.00	11
318.00	9
319.00	55
320.00	3
324.00	5
325.00	2
328.00	12
330.00	13
332.00	19
334.00	6
336.00	15
337.00	27
339.00	22
340.00	29
342.00	10
344.00	14
345.00	47
346.00	41
348.00	22
352.00	42
354.00	11
355.00	31
356.00	31
358.00	45
360.00	8
361.00	20
367.00	26
368.00	24
369.00	23
378.00	8
379.00	10
380.00	12
382.00	19
384.00	32
387.00	26
389.00	48
391.00	26
392.00	11
395.00	43
399.00	45
[MS Spectrum]	
# of Peaks	234
Raw Spectrum	4.258 -> 4.262 (scan : 1356 -> 1358)
Background	4.222 <-> 4.285 (scan : 1334 <-> 1372)
Base Peak	m/z 93.10 (Inten : 24,602)
Event#	1
m/z	Absolute Intensity
35.00	1
37.00	86
38.00	101
39.10	4985
40.10	594
41.10	17667
42.15	2927
43.15	5801
45.00	76
46.00	55
49.00	17
50.00	300
51.10	1100
52.10	610
53.10	2395
54.10	1091
55.10	6660
56.15	6449
57.10	3795
58.10	315
59.10	94
60.10	58
61.10	48
62.10	44
63.10	327
64.00	14
64.95	1150
66.05	536
67.10	3201
68.10	1257
69.15	12439
70.15	4550
71.10	659
72.10	2
73.10	96
75.10	19
76.10	183
77.10	5067
78.10	725
79.10	5312
80.10	3296
81.10	1420
82.10	968
83.15	2160
84.05	1137
85.20	253
87.20	104
88.10	51
89.10	67
90.10	7
91.10	6428
92.10	2642
93.10	24602
94.15	3420
95.10	323
96.10	350
97.15	1380
98.20	455
101.20	74
102.20	51
103.20	182
104.20	65
105.10	353
106.20	208
107.15	1038
108.10	359
109.10	57
110.10	110
111.25	585
112.20	284
113.20	61
115.20	157
116.20	25
117.20	142
118.10	104
119.10	50
121.15	2437
122.20	198
123.20	47
124.20	44
125.20	17
132.20	17
135.20	90
136.15	2084
137.20	328
138.20	12
140.20	133
141.20	44
142.20	47
145.10	3
148.20	9
149.20	35
153.20	15
154.10	4
157.20	61
159.20	26
160.20	18
162.10	43
164.20	86
165.20	15
166.20	47
167.20	8
170.20	17
171.20	24
173.20	52
175.20	23
176.20	39
177.20	17
181.20	50
183.20	15
184.20	41
185.20	28
187.10	37
188.20	18
189.10	22
190.20	6
191.10	3
195.10	90
197.10	41
199.10	30
201.20	34
202.10	6
204.20	44
206.20	29
208.20	12
209.20	25
212.10	6
213.10	11
217.20	17
218.20	14
219.20	2
220.20	42
221.20	9
222.20	23
223.10	49
224.10	23
225.20	6
226.20	22
227.20	27
228.20	33
229.20	33
230.10	57
231.10	40
232.20	18
233.10	1
234.10	25
236.10	34
238.10	25
240.10	31
242.10	29
246.20	64
250.20	30
254.20	5
255.10	22
256.20	20
258.20	18
259.20	3
260.20	31
261.10	1
265.20	52
267.20	3
268.20	15
269.20	12
270.20	6
271.10	16
272.20	13
276.20	9
278.20	39
284.20	39
285.10	52
286.20	8
289.20	31
291.10	18
294.10	12
295.20	61
296.20	3
298.20	16
299.20	21
302.20	11
304.20	50
305.20	30
306.20	50
308.20	22
309.20	31
310.20	10
311.20	6
312.20	35
313.20	15
316.20	30
318.20	17
319.20	30
320.20	29
322.20	6
323.10	13
325.20	9
326.20	26
327.10	10
328.20	35
329.20	69
330.10	17
332.20	34
333.20	32
335.10	32
336.20	41
339.10	61
342.20	19
343.20	62
344.20	84
346.10	54
349.10	9
350.10	7
352.10	42
353.20	60
354.20	24
357.20	21
358.10	21
360.20	5
362.10	14
369.20	48
370.20	17
372.20	55
373.20	23
377.20	6
379.20	19
382.20	27
383.10	8
390.20	17
391.10	27
392.20	19
393.10	38
394.20	60
395.20	9
397.20	41
399.10	5
[MS Spectrum]	
# of Peaks	187
Raw Spectrum	4.322 -> 4.325 (scan : 1394 -> 1396)
Background	4.305 <-> 4.358 (scan : 1384 <-> 1416)
Base Peak	m/z 43.10 (Inten : 7,391)
Event#	1
m/z	Absolute Intensity
36.00	15
38.00	46
39.10	1407
40.05	338
41.10	5023
42.10	2259
43.10	7391
44.10	3907
45.10	1276
46.10	61
47.10	34
49.10	61
50.10	35
51.10	204
52.10	71
53.10	462
54.15	559
55.10	2583
56.15	3729
57.10	4247
58.10	215
59.10	296
60.10	128
61.10	29
65.10	240
66.10	197
67.10	1187
68.15	1279
69.10	1902
70.10	504
71.15	1055
72.15	493
73.20	97
74.10	31
75.20	26
77.10	100
78.20	64
79.10	219
80.20	39
81.05	588
82.20	1215
83.10	180
84.10	2336
85.15	1491
86.20	88
88.20	54
89.20	103
90.20	14
91.20	166
92.20	23
93.20	102
94.20	51
95.20	254
97.20	22
98.20	154
99.20	362
100.20	339
103.20	89
104.10	157
105.15	1352
106.10	6
107.10	45
108.10	50
109.10	23
110.10	101
111.10	1
113.10	202
116.10	13
119.10	57
120.10	722
121.10	72
124.10	22
125.10	24
126.10	68
127.10	39
128.10	18
129.10	24
134.10	28
135.10	18
136.10	33
137.10	10
138.10	16
139.10	20
142.10	65
145.10	16
147.10	19
150.10	10
154.10	84
156.10	12
157.10	16
159.10	19
160.10	34
161.10	102
164.10	34
165.10	8
169.10	4
170.10	26
174.10	50
178.10	10
179.10	15
181.10	42
183.10	8
189.10	49
191.10	12
192.10	19
193.10	25
196.10	6
199.10	6
200.10	18
201.10	11
203.10	54
205.10	97
209.10	45
215.10	9
216.10	53
217.10	19
219.10	35
220.10	7
223.10	23
224.10	31
225.10	14
226.10	10
229.10	18
231.10	9
232.10	13
233.10	6
235.10	35
236.10	66
237.10	6
240.10	34
245.10	25
246.10	3
247.10	28
249.10	55
250.10	16
251.10	34
258.10	1
262.10	15
263.10	32
266.10	6
269.10	27
271.10	19
273.10	16
276.10	17
283.10	7
289.10	9
292.10	7
293.10	29
295.10	27
296.10	15
297.10	34
300.10	3
302.10	15
303.10	9
308.10	59
309.10	1
314.10	43
317.10	16
318.10	15
319.10	17
320.10	6
332.10	12
335.10	22
340.10	21
341.10	28
345.10	8
347.10	5
348.10	16
357.10	18
363.10	14
364.10	47
367.10	11
368.10	30
369.10	5
370.10	29
374.10	23
376.10	16
377.10	44
382.10	13
384.10	15
387.10	26
388.10	15
391.10	3
393.10	33
396.10	22
398.10	58
399.10	8
[MS Spectrum]	
# of Peaks	217
Raw Spectrum	4.452 -> 4.455 (scan : 1472 -> 1474)
Background	4.422 <-> 4.478 (scan : 1454 <-> 1488)
Base Peak	m/z 93.15 (Inten : 29,960)
Event#	1
m/z	Absolute Intensity
36.00	10
37.00	49
38.00	247
39.10	4249
40.10	1195
41.10	5548
42.15	307
43.10	4360
44.10	394
46.10	99
48.00	17
50.00	238
51.05	1501
52.15	650
53.15	2502
54.10	395
55.10	1507
58.05	331
59.10	182
60.00	74
61.00	21
62.10	63
63.00	384
64.00	134
65.10	1972
66.10	458
67.10	3147
68.15	559
69.10	357
70.10	45
71.10	118
72.10	144
73.10	7
74.10	56
75.10	11
76.10	19
77.10	9158
78.10	1114
79.10	9315
80.10	7067
81.10	1293
82.10	101
84.10	139
85.10	74
86.10	19
88.10	27
89.10	85
90.10	43
91.10	13959
92.10	9228
93.15	29960
94.15	3507
95.10	414
96.10	31
98.10	62
100.10	18
102.10	60
103.10	732
104.10	209
105.15	4292
106.10	479
107.15	1913
108.10	476
109.20	119
112.10	42
113.20	45
115.10	341
117.20	369
118.10	72
119.20	1441
120.20	229
121.15	4482
122.15	692
123.10	19
124.20	14
126.10	18
127.10	26
128.10	7
129.20	4
130.20	1
131.20	33
132.10	45
133.20	75
134.20	256
135.20	30
136.25	4589
137.20	562
139.20	32
140.20	46
141.20	16
142.20	13
144.20	7
145.20	38
147.20	19
148.20	11
150.20	1
153.20	5
156.20	15
158.20	32
163.20	8
164.20	7
172.20	8
173.20	37
177.20	13
180.20	7
181.20	11
182.20	19
183.20	6
189.20	1
194.20	18
197.20	6
199.20	22
200.20	25
202.20	28
203.20	51
204.20	22
205.20	18
206.20	29
207.20	27
208.20	4
210.20	16
217.20	19
219.20	3
220.20	23
221.20	20
222.20	26
223.20	59
224.20	9
226.20	18
227.20	2
228.20	23
229.20	7
230.20	4
233.20	56
235.20	11
236.20	5
237.20	28
238.20	22
241.20	35
243.20	50
245.20	33
246.20	14
247.20	11
248.20	4
249.20	7
250.20	15
252.20	26
253.20	20
258.20	19
260.20	39
262.20	15
264.20	26
265.20	12
266.20	13
267.20	8
268.20	16
269.20	40
272.20	2
274.20	33
278.20	19
280.20	7
282.20	11
284.20	41
289.20	6
290.20	43
292.20	39
294.20	5
295.20	15
296.20	42
297.20	22
298.20	16
299.20	15
302.20	6
303.20	26
305.20	45
307.20	19
310.20	28
311.20	13
316.20	53
317.20	4
318.20	30
322.20	22
323.20	9
325.20	8
326.20	10
327.20	18
328.20	25
330.20	36
334.20	43
335.20	3
336.20	42
337.20	1
343.20	45
344.20	23
345.20	6
347.20	7
349.20	29
351.20	7
352.20	20
354.20	31
357.20	8
359.20	18
360.20	22
362.20	15
363.20	18
365.20	31
368.20	41
369.20	38
371.20	57
375.20	34
376.20	25
377.20	8
379.20	20
380.20	17
386.20	35
393.20	4
395.20	16
[MS Spectrum]	
# of Peaks	171
Raw Spectrum	4.498 -> 4.502 (scan : 1500 -> 1502)
Background	4.478 <-> 4.518 (scan : 1488 <-> 1512)
Base Peak	m/z 57.15 (Inten : 40,743)
Event#	1
m/z	Absolute Intensity
35.00	1
38.00	79
39.10	2203
40.10	372
41.10	13255
42.10	2414
43.10	12648
44.05	194
45.10	435
46.10	9
50.10	105
51.10	90
52.10	12
53.10	704
54.10	719
55.10	10154
56.15	8217
57.15	40743
58.15	1215
59.15	402
61.10	5
64.10	15
65.10	35
66.10	56
67.15	441
68.10	469
69.10	3392
70.10	7823
71.15	1524
72.10	1566
73.10	212
77.10	136
78.10	34
79.10	202
81.10	208
82.10	1543
83.15	7345
84.15	3104
85.10	305
92.10	37
93.10	17
94.10	64
96.10	99
97.20	556
98.15	1926
99.20	337
100.10	66
101.20	58
106.20	29
110.20	99
111.10	40
112.15	641
113.20	43
127.20	1
129.20	75
130.20	41
132.20	47
133.10	14
140.20	35
141.10	49
143.20	19
145.20	5
147.20	3
150.20	29
152.20	39
154.20	30
157.10	4
159.10	11
161.20	3
164.10	14
168.10	13
172.20	24
173.20	4
175.10	16
178.20	10
181.10	28
183.10	14
184.20	40
186.20	65
188.20	15
189.20	9
190.10	16
191.20	13
196.20	14
200.20	36
201.20	22
204.10	25
205.10	4
212.20	56
213.20	51
214.20	27
220.10	8
222.20	2
223.20	45
224.10	25
227.20	27
228.20	34
229.10	3
231.20	19
233.10	35
234.20	8
235.10	17
236.10	2
243.20	15
246.20	14
250.10	7
255.10	7
257.20	2
259.10	3
264.20	33
265.20	36
266.10	6
267.10	9
268.10	1
273.20	32
274.20	22
276.20	23
278.20	20
281.20	50
285.10	24
286.10	8
288.10	23
289.10	18
293.20	19
295.10	6
298.20	26
305.20	6
306.20	4
307.20	25
309.20	49
310.20	12
311.10	40
314.10	10
315.20	13
318.20	9
322.10	42
323.10	8
324.10	19
328.10	14
329.10	22
332.20	7
333.20	21
336.20	19
338.20	34
339.20	37
342.10	25
343.20	20
348.20	9
349.20	31
352.20	5
355.10	7
358.20	26
359.20	22
362.20	10
363.20	6
365.10	8
366.20	33
367.20	16
372.20	24
373.20	45
375.10	11
377.20	21
379.20	16
383.10	39
384.20	11
386.20	33
388.10	4
389.10	29
394.20	20
397.20	18
398.20	18
[MS Spectrum]	
# of Peaks	160
Raw Spectrum	4.527 -> 4.530 (scan : 1517 -> 1519)
Background	4.518 <-> 4.548 (scan : 1512 <-> 1530)
Base Peak	m/z 119.15 (Inten : 3,248)
Event#	1
m/z	Absolute Intensity
36.00	8
39.10	379
41.10	54
44.00	262
47.00	1
48.00	5
49.10	82
50.00	88
51.00	111
52.00	144
56.20	249
58.20	14
62.20	67
63.20	208
64.20	12
65.20	427
66.20	85
70.10	58
71.20	157
73.20	25
74.20	143
77.05	490
78.00	102
79.20	248
80.20	21
86.20	31
88.20	7
89.00	70
90.10	53
91.10	942
92.10	163
93.10	249
94.10	51
97.10	9
98.10	73
100.10	17
101.10	126
102.10	26
103.10	151
104.10	125
105.15	1249
106.10	76
107.10	4
108.10	22
112.10	7
114.20	25
115.10	228
116.10	42
117.10	273
119.15	3248
120.15	1090
121.20	101
124.10	29
127.20	7
128.10	30
130.10	7
132.20	31
133.10	44
134.25	953
140.20	38
141.20	40
146.10	16
147.20	8
148.10	27
149.20	32
151.20	18
154.10	43
155.20	13
160.20	5
165.20	26
173.10	15
174.10	40
178.20	2
179.20	8
181.10	4
184.20	13
189.10	18
212.20	2
213.10	12
214.20	27
220.20	7
221.20	40
222.10	19
223.10	20
224.10	25
225.20	12
227.20	18
228.10	25
231.20	36
234.20	8
239.10	15
243.20	31
244.10	27
248.20	2
255.20	15
257.20	6
263.20	23
265.20	8
268.10	33
273.10	42
274.20	15
276.20	76
283.20	19
284.20	16
286.20	14
287.20	21
289.20	39
293.20	40
298.20	46
299.20	5
300.10	7
306.20	3
307.20	3
308.20	8
314.20	55
315.20	18
317.10	5
318.20	7
320.10	9
323.10	17
326.10	5
328.10	12
330.10	4
332.20	30
333.20	26
336.20	20
337.10	13
338.20	25
339.20	8
342.20	3
343.20	17
346.20	7
347.10	15
348.10	27
349.10	30
350.20	37
358.10	18
361.20	9
362.20	20
364.10	11
365.10	19
366.10	20
367.20	5
368.10	43
369.10	34
370.10	6
371.20	15
372.10	27
373.10	26
374.10	25
377.10	8
378.10	20
381.20	14
383.10	19
385.20	10
387.20	55
388.10	49
392.20	12
393.20	2
398.20	31
[MS Spectrum]	
# of Peaks	192
Raw Spectrum	4.570 -> 4.573 (scan : 1543 -> 1545)
Background	4.548 <-> 4.628 (scan : 1530 <-> 1578)
Base Peak	m/z 68.10 (Inten : 19,166)
Event#	1
m/z	Absolute Intensity
36.00	14
37.00	2
38.00	88
39.10	3949
40.10	1435
41.15	3926
42.15	655
43.10	444
44.05	146
47.10	14
48.10	34
50.10	291
51.10	1258
52.10	678
53.15	4145
54.10	203
55.10	978
58.10	67
59.20	39
62.10	44
63.10	202
64.10	89
65.10	1633
66.10	537
67.15	13969
68.10	19166
69.15	1532
72.20	27
75.20	4
77.10	2631
78.10	929
79.10	5942
80.15	2101
81.10	2149
82.10	276
83.10	119
85.10	12
88.10	25
90.10	8
91.10	2630
92.10	4940
93.15	13471
94.15	6054
95.15	2082
96.20	111
98.20	110
101.10	27
102.10	53
103.20	64
104.10	53
105.15	932
106.10	301
107.15	3713
108.15	934
109.20	150
111.20	41
112.20	128
114.20	33
116.20	23
119.20	178
121.20	3192
122.20	267
124.20	160
125.20	30
126.20	34
129.20	73
131.20	38
132.20	104
133.20	21
134.20	42
135.20	54
136.20	3444
137.20	457
141.20	10
142.20	45
143.20	44
149.20	43
152.20	11
155.20	35
156.20	49
159.20	7
160.20	6
163.20	24
164.20	36
165.20	16
166.20	8
168.20	30
169.20	16
173.20	2
175.20	16
176.20	5
180.20	22
181.20	35
182.20	62
184.20	8
185.20	30
188.20	28
192.20	49
194.20	14
200.20	24
205.20	11
206.20	33
208.20	16
210.20	43
211.20	9
212.20	32
213.20	2
214.20	11
217.20	14
218.20	29
219.20	2
220.20	3
221.20	18
222.20	7
223.20	43
228.20	16
234.20	22
235.20	26
236.20	30
239.20	3
241.20	4
245.20	27
247.20	8
248.20	16
249.20	41
250.20	7
251.20	28
253.20	20
254.20	21
256.20	21
259.20	21
260.20	33
261.20	6
262.20	32
263.20	17
265.20	53
267.20	19
268.20	20
269.20	26
271.20	6
275.20	16
276.20	6
280.20	18
281.20	51
283.20	13
284.20	12
293.20	35
300.20	13
303.20	14
305.20	4
311.20	15
313.20	13
314.20	5
317.20	9
322.20	46
324.20	14
325.20	7
326.20	25
329.20	6
332.20	11
337.20	35
339.20	8
340.20	22
341.20	20
342.20	24
343.20	17
344.20	42
345.20	5
346.20	15
350.20	12
351.20	22
352.20	23
353.20	40
356.20	12
360.20	43
361.20	6
362.20	56
364.20	36
365.20	29
367.20	6
376.20	21
380.20	11
382.20	29
384.20	28
385.20	22
387.20	22
390.20	55
392.20	14
393.20	3
395.20	11
397.20	3
398.20	54
[MS Spectrum]	
# of Peaks	160
Raw Spectrum	4.687 -> 4.690 (scan : 1613 -> 1615)
Background	4.628 <-> 4.788 (scan : 1578 <-> 1674)
Base Peak	m/z 57.15 (Inten : 2,663)
Event#	1
m/z	Absolute Intensity
37.00	25
38.00	56
39.05	511
41.10	683
42.15	519
43.10	1401
44.05	242
47.00	35
52.10	37
54.10	104
55.10	869
56.15	329
57.15	2663
58.10	54
62.10	11
64.10	15
67.10	28
68.10	97
69.10	429
70.15	767
71.20	1610
72.20	10
76.10	4
78.20	66
80.10	16
81.20	108
82.20	118
83.20	165
84.15	216
85.10	1023
89.10	27
93.10	4
94.10	21
98.10	193
99.10	3
100.10	25
101.10	2
102.10	16
103.10	1
104.10	20
105.10	76
111.10	23
112.10	40
113.10	208
114.10	68
115.10	85
116.10	23
119.10	11
121.10	139
126.10	15
127.10	199
132.10	36
133.10	2
134.10	47
135.10	87
136.10	13
139.10	17
141.10	16
144.10	15
146.10	10
148.10	8
152.10	4
153.10	54
157.10	5
158.10	64
159.10	60
160.10	22
165.10	60
167.10	53
169.10	13
173.10	30
176.10	20
178.10	23
180.10	3
183.10	20
188.10	31
189.10	1
190.10	19
191.10	6
192.10	16
193.10	13
201.10	6
205.10	46
207.10	73
209.10	33
212.10	32
215.10	7
216.10	3
217.10	5
218.10	20
220.10	38
221.10	6
227.10	22
235.10	21
236.10	19
238.10	20
243.10	8
245.10	20
247.10	18
249.10	73
254.10	8
255.10	14
257.10	55
258.10	24
259.10	5
262.10	35
265.10	61
267.10	1
270.10	18
274.10	6
276.10	28
281.10	23
282.10	25
284.10	8
285.10	10
294.10	4
297.10	48
298.10	2
300.10	19
301.10	12
302.10	26
303.10	31
305.10	26
306.10	25
309.10	42
313.10	8
315.10	22
317.10	15
318.10	19
319.10	1
320.10	4
321.10	3
325.10	67
326.10	16
327.10	16
329.10	7
339.10	15
340.10	28
341.10	12
343.10	45
345.10	27
346.10	31
349.10	7
350.10	5
352.10	41
355.10	13
356.10	17
360.10	4
365.10	24
367.10	21
373.10	1
375.10	10
380.10	36
381.10	41
382.10	1
384.10	39
385.10	4
392.10	4
396.10	19
398.10	3
[MS Spectrum]	
# of Peaks	192
Raw Spectrum	4.803 -> 4.807 (scan : 1683 -> 1685)
Background	4.788 <-> 4.832 (scan : 1674 <-> 1700)
Base Peak	m/z 105.10 (Inten : 9,548)
Event#	1
m/z	Absolute Intensity
35.00	5
37.00	135
38.15	350
39.10	705
41.10	147
42.10	203
43.10	1558
44.05	120
47.10	17
48.10	39
49.10	88
50.10	1107
51.05	3213
52.45	169
54.10	7
57.10	526
58.10	111
62.10	114
63.10	359
64.10	56
65.10	49
66.10	15
68.10	102
69.15	56
70.10	70
72.10	8
73.10	181
74.10	379
75.10	90
76.10	387
77.10	8733
78.05	829
79.10	110
80.10	4
81.10	23
84.10	166
85.10	12
87.10	3
89.10	128
91.10	136
92.10	107
96.10	17
98.10	17
99.10	101
100.10	9
103.10	68
104.10	17
105.10	9548
106.10	761
107.10	133
113.20	71
114.10	51
115.10	78
116.20	48
117.10	51
119.10	19
120.15	3360
121.20	358
122.20	86
123.10	23
125.20	3
127.10	73
129.20	17
131.10	42
132.10	10
133.10	9
135.20	9
136.20	79
137.10	11
139.20	32
141.20	48
147.20	33
152.20	23
153.10	9
155.20	31
158.20	40
161.20	4
162.20	33
163.20	4
164.20	3
165.20	2
169.20	48
170.10	3
171.20	4
172.20	30
173.20	9
174.20	15
175.20	13
176.20	38
178.20	3
182.20	11
183.20	18
188.10	42
193.20	41
199.10	32
201.20	1
202.20	26
204.10	26
205.20	23
206.10	5
211.20	14
212.20	28
213.20	25
216.20	4
221.10	30
222.20	44
223.20	10
224.20	43
227.10	49
229.10	2
233.20	18
238.10	39
242.20	11
245.20	1
248.20	50
249.20	49
250.20	29
256.20	15
258.20	15
261.10	5
262.10	82
265.20	28
266.20	8
267.20	1
268.20	15
270.20	5
272.20	28
273.20	1
277.20	21
282.20	29
284.20	40
285.20	22
290.20	10
291.10	22
293.20	34
298.10	14
299.20	32
300.10	55
302.20	36
303.20	15
304.20	7
305.10	2
306.10	6
307.10	22
309.10	11
312.20	56
316.10	28
319.10	29
320.10	10
321.20	4
323.20	15
326.10	12
327.10	27
328.10	43
329.10	4
330.20	17
331.10	4
332.20	2
333.10	14
334.20	65
336.20	27
338.10	5
339.20	18
341.10	2
342.10	27
343.10	27
346.20	58
347.20	35
348.20	16
350.10	63
351.10	2
355.20	12
358.20	5
359.20	6
360.20	8
361.10	11
362.10	9
367.20	21
372.10	69
373.20	15
374.20	5
375.20	10
376.20	52
377.20	15
383.10	9
384.10	3
385.20	24
387.10	5
388.10	7
390.20	30
394.10	2
395.20	1
[MS Spectrum]	
# of Peaks	202
Raw Spectrum	4.920 -> 4.923 (scan : 1753 -> 1755)
Background	4.892 <-> 4.952 (scan : 1736 <-> 1772)
Base Peak	m/z 43.10 (Inten : 13,011)
Event#	1
m/z	Absolute Intensity
35.00	33
36.00	4
37.00	18
38.00	78
39.10	893
40.05	11
41.10	895
42.15	64
43.10	13011
44.05	459
45.10	193
46.10	120
47.10	18
48.10	8
50.10	428
51.10	1797
52.15	471
53.10	251
54.10	22
55.15	97
57.15	534
58.10	34
59.05	444
60.10	79
60.60	213
62.10	78
63.10	267
65.10	246
66.10	44
67.10	133
71.05	532
74.10	123
75.10	183
76.10	158
77.10	1962
78.05	1549
81.10	112
82.00	12
83.10	268
86.00	52
87.00	72
88.00	15
89.10	145
91.10	1292
93.10	100
94.10	34
95.10	120
97.10	85
98.10	17
100.10	17
101.10	21
102.10	100
103.10	1036
104.10	76
105.15	142
106.10	116
107.10	5
108.10	42
109.10	5
111.10	46
112.20	87
113.10	32
115.15	404
116.10	125
117.15	1629
118.15	2338
119.10	474
120.10	310
121.15	7081
122.15	533
126.20	5
127.10	30
130.10	91
134.10	46
136.15	494
139.20	3
141.20	7
144.20	24
145.20	46
148.20	31
155.20	9
156.20	50
157.20	19
158.20	36
160.20	47
161.20	23
162.20	56
166.20	59
167.20	16
168.20	8
169.20	1
171.20	28
174.20	36
175.20	93
176.20	20
177.20	29
178.20	22
181.20	1
182.20	8
185.20	54
186.20	24
190.20	27
195.20	32
196.20	2
198.20	46
199.20	61
200.20	3
203.20	66
205.20	3
207.20	68
208.20	41
209.20	17
210.20	36
214.20	9
217.20	1
218.20	8
219.20	71
221.20	10
222.20	1
223.20	66
224.20	72
227.20	1
230.20	46
233.20	7
235.20	51
238.20	36
242.20	11
245.20	10
246.20	11
247.20	23
250.20	6
252.20	47
253.20	21
254.20	33
255.20	29
259.20	3
263.20	20
266.20	63
267.20	28
268.20	12
271.20	8
273.20	43
274.20	32
276.20	34
277.20	27
278.20	18
280.20	17
281.20	8
288.20	16
299.20	24
302.20	6
305.20	32
306.20	12
308.20	8
309.20	6
311.20	11
314.20	21
315.20	38
318.20	35
321.20	45
324.20	20
325.20	39
328.20	5
330.20	14
331.20	51
332.20	31
334.20	12
335.20	46
336.20	24
345.20	39
346.20	11
351.20	24
352.20	63
353.20	8
354.20	40
357.20	11
358.20	7
359.20	17
361.20	39
362.20	24
363.20	30
366.20	19
370.20	25
372.20	1
373.20	33
374.20	18
375.20	32
376.20	28
377.20	29
381.20	4
383.20	7
385.20	50
386.20	16
387.20	43
388.20	12
390.20	55
391.20	73
393.20	1
395.20	44
396.20	27
397.20	4
398.20	35
[MS Spectrum]	
# of Peaks	204
Raw Spectrum	4.985 -> 4.988 (scan : 1792 -> 1794)
Background	4.952 <-> 5.035 (scan : 1772 <-> 1822)
Base Peak	m/z 57.10 (Inten : 7,236)
Event#	1
m/z	Absolute Intensity
35.00	14
39.10	1312
40.10	162
41.10	5680
42.10	2013
43.10	5265
44.10	3347
45.10	1189
46.10	68
48.10	30
50.10	147
51.10	162
53.10	292
54.15	1056
55.15	3788
56.15	4723
57.10	7236
58.10	408
59.10	99
60.10	25
65.10	109
66.10	234
67.10	1432
68.10	2383
69.10	1777
70.15	3155
71.10	1382
72.10	391
73.10	8
75.10	6
77.05	512
78.10	25
80.10	123
81.15	2179
82.15	1976
83.10	909
84.10	118
85.20	277
86.20	206
87.10	10
88.10	16
93.10	288
94.20	86
95.15	1423
96.10	1428
97.10	32
98.15	1752
99.20	232
100.20	116
101.20	30
104.20	31
105.10	414
106.10	104
107.10	15
108.10	69
109.10	304
110.10	66
112.10	6
113.10	114
114.10	404
123.10	18
124.10	123
128.10	7
130.10	4
131.10	7
134.10	24
136.10	113
137.10	5
139.10	52
140.10	61
141.10	19
144.10	6
147.10	26
148.10	14
149.10	38
150.10	13
153.10	12
154.10	44
155.10	42
158.10	9
159.10	73
160.10	16
161.10	32
164.10	8
165.10	17
168.10	28
169.10	14
171.10	10
174.10	68
177.10	38
178.10	26
181.10	17
182.10	80
183.10	36
184.10	20
185.10	23
186.10	46
187.10	9
190.10	60
191.10	14
192.10	13
193.10	5
194.10	9
197.10	31
198.10	24
199.10	38
200.10	14
202.10	10
203.10	9
206.10	23
207.10	41
208.10	81
209.10	28
210.10	30
213.10	51
214.10	32
216.10	24
218.10	28
219.10	14
223.10	9
224.10	18
226.10	7
227.10	9
228.10	61
229.10	19
231.10	30
233.10	7
234.10	15
242.10	20
243.10	33
246.10	7
248.10	13
250.10	11
252.10	33
253.10	3
255.10	7
258.10	22
261.10	14
262.10	9
264.10	24
266.10	21
268.10	3
269.10	18
271.10	15
272.10	28
273.10	43
274.10	17
275.10	29
277.10	26
278.10	14
281.10	35
283.10	31
284.10	31
286.10	25
288.10	22
293.10	48
298.10	84
302.10	29
303.10	26
304.10	33
307.10	2
308.10	26
314.10	7
315.10	17
317.10	12
318.10	32
319.10	17
323.10	23
324.10	38
325.10	41
326.10	2
330.10	48
337.10	10
339.10	14
340.10	47
343.10	24
344.10	39
347.10	19
351.10	13
352.10	10
354.10	39
359.10	9
360.10	58
361.10	35
363.10	7
364.10	25
367.10	28
371.10	10
372.10	39
375.10	50
376.10	35
377.10	4
378.10	37
379.10	59
380.10	2
382.10	28
386.10	47
387.10	48
388.10	2
391.10	44
393.10	15
395.10	4
396.10	53
397.10	50
[MS Spectrum]	
# of Peaks	254
Raw Spectrum	5.143 -> 5.147 (scan : 1887 -> 1889)
Background	5.112 <-> 5.202 (scan : 1868 <-> 1922)
Base Peak	m/z 73.10 (Inten : 107,956)
Event#	1
m/z	Absolute Intensity
38.00	13
40.10	120
42.10	130
43.10	461
44.05	163
45.10	5951
46.10	464
47.10	234
48.10	80
49.10	12
50.10	49
51.10	68
52.10	76
54.10	49
55.15	131
56.10	82
57.10	318
58.10	139
59.10	4293
60.10	267
61.10	91
64.10	76
65.10	103
70.10	208
71.10	509
72.10	108
73.10	107956
74.15	8636
75.10	4352
76.10	123
78.10	94
82.10	56
83.10	57
84.10	106
85.10	659
87.10	655
88.10	29
89.10	104
90.10	100
91.10	1182
92.15	939
94.10	42
96.10	149
97.10	164
99.10	236
100.10	59
102.10	184
103.10	181
104.10	198
108.40	283
108.60	193
110.50	16
111.40	47
112.50	92
112.60	28
114.40	58
117.50	27
118.10	147
119.15	385
119.60	20
121.10	32
122.20	291
124.20	18
125.10	266
126.10	194
127.60	2
130.20	19
132.10	113
133.10	442
134.10	161
135.10	57
135.60	42
137.10	27
138.10	1
139.10	142
139.60	42
141.10	220
141.60	47
143.60	15
145.10	62
147.10	252
147.60	69
149.10	72
149.60	10
154.05	1407
155.05	618
156.10	160
157.10	19
158.10	44
161.10	45
162.00	992
163.10	454
164.00	3
165.10	374
166.10	64
170.00	392
171.00	131
172.10	33
175.00	113
176.00	45
177.00	362
178.00	122
178.90	698
179.90	156
180.90	191
184.90	35
185.90	33
186.90	1
187.90	12
188.90	22
189.90	87
190.95	1465
192.00	306
192.95	1714
194.00	138
195.00	85
197.00	6
198.00	24
202.00	33
203.00	254
204.00	121
205.05	694
206.00	94
206.90	1022
207.90	305
208.90	141
209.90	26
212.90	10
214.90	47
216.90	20
217.90	10
218.90	52
220.90	188
222.90	740
223.90	149
224.90	41
227.90	38
229.90	18
231.90	23
232.90	76
233.90	59
234.90	361
235.90	91
236.90	526
237.90	73
238.90	25
243.90	8
246.90	31
247.90	8
249.00	1517
249.85	544
250.95	1767
251.90	766
252.95	689
253.90	221
254.90	113
256.00	1
257.90	7
258.90	5
260.90	15
261.90	36
262.90	184
263.90	90
264.90	572
266.00	110
266.95	27485
268.00	7152
268.95	4712
269.95	693
271.00	203
272.00	70
274.90	32
275.90	66
278.00	10
279.00	84
281.00	279
282.00	99
283.00	62
284.00	22
285.00	26
288.90	25
290.00	25
290.90	16
292.00	37
293.00	166
294.00	18
295.00	54
296.00	24
297.00	39
298.00	15
303.00	25
303.90	17
304.90	43
307.00	42
309.00	178
310.00	52
311.00	25
312.00	37
313.00	31
314.00	18
314.90	16
316.00	12
318.00	47
319.90	1
320.90	14
322.00	26
322.90	810
323.90	404
324.90	519
325.90	167
326.90	89
333.90	17
335.90	9
336.90	24
338.95	978
339.90	411
340.90	400
341.90	104
342.90	68
343.90	23
345.90	39
346.90	17
350.90	34
351.90	8
354.00	63
354.95	24220
355.95	7801
357.00	5943
357.90	1580
358.90	320
360.00	84
360.90	28
363.00	21
364.00	3
364.90	11
367.90	6
368.90	4
371.00	20
373.00	64
374.00	50
376.00	13
377.00	51
378.00	52
378.90	13
381.00	26
381.90	1
383.00	8
388.00	48
389.90	59
392.00	57
392.90	40
395.90	13
398.00	1
399.00	19
[MS Spectrum]	
# of Peaks	192
Raw Spectrum	5.383 -> 5.387 (scan : 2031 -> 2033)
Background	5.348 <-> 5.458 (scan : 2010 <-> 2076)
Base Peak	m/z 60.10 (Inten : 14,045)
Event#	1
m/z	Absolute Intensity
35.00	11
38.00	114
39.10	2207
41.10	5686
42.10	1943
43.10	7198
45.10	1468
46.10	1
50.10	32
52.10	82
53.10	492
54.10	311
55.15	5451
56.10	1849
57.15	2437
58.20	228
59.15	500
60.10	14045
61.05	2077
62.00	95
63.10	47
64.00	65
65.10	453
66.10	100
67.00	630
68.00	109
69.15	1758
70.10	227
72.10	39
73.10	8410
74.10	831
75.10	11
77.10	159
78.10	80
80.10	129
81.10	268
82.10	376
83.10	950
84.15	2893
85.15	2797
86.10	258
87.10	1785
88.10	233
89.10	199
90.10	85
91.10	3107
92.15	666
93.10	75
95.10	193
96.10	27
97.15	347
98.10	261
99.20	86
100.10	85
101.10	2863
102.10	263
103.10	73
104.10	69
105.10	24
106.10	19
107.10	45
108.10	65
109.10	39
110.10	7
111.10	63
113.10	51
115.10	928
116.10	99
117.20	75
120.10	52
124.20	79
125.20	154
126.20	18
127.10	317
128.20	75
129.20	223
130.10	3
131.20	100
133.10	26
135.20	24
136.20	22
137.10	6
138.20	31
139.10	57
143.10	37
144.20	26
146.20	250
147.20	6
148.10	27
149.20	27
150.20	5
152.20	87
153.10	4
154.20	9
157.20	9
158.20	3
159.10	3
160.20	12
163.10	67
164.20	37
165.20	38
166.10	20
169.10	18
170.20	15
173.20	2
174.20	21
178.20	56
180.10	22
182.20	3
183.10	17
189.20	69
193.20	35
194.20	15
195.20	3
196.20	33
197.20	19
198.20	24
199.10	8
202.10	24
212.20	17
214.20	18
217.10	28
221.20	5
223.20	10
224.20	3
227.10	67
228.20	3
230.20	45
231.20	16
236.10	10
237.10	3
238.20	4
239.20	14
248.10	14
251.10	27
253.20	7
254.20	47
258.10	2
260.20	30
261.20	18
263.20	39
268.20	2
269.20	37
276.20	5
278.20	15
284.10	31
287.10	9
290.10	9
291.10	44
292.20	11
293.10	23
298.20	12
304.20	8
305.20	32
307.10	1
308.20	35
309.20	10
317.20	8
320.10	1
321.10	21
328.20	58
329.20	26
338.10	4
342.20	50
346.20	19
352.10	36
354.20	17
356.20	25
359.20	8
360.10	4
361.10	1
363.10	11
364.20	18
367.20	18
368.20	31
369.20	30
371.10	13
372.20	7
373.20	35
377.20	38
378.20	1
379.20	12
381.20	5
382.10	77
385.10	7
386.20	18
387.20	4
390.10	13
391.10	40
394.10	3
395.20	69
396.10	7
[MS Spectrum]	
# of Peaks	186
Raw Spectrum	5.485 -> 5.488 (scan : 2092 -> 2094)
Background	5.458 <-> 5.548 (scan : 2076 <-> 2130)
Base Peak	m/z 91.10 (Inten : 306,514)
Event#	1
m/z	Absolute Intensity
36.00	3
37.10	620
38.10	3253
39.10	20816
40.10	1423
41.10	4779
42.10	436
43.10	491
45.60	3439
50.10	3981
51.10	9367
52.10	2721
53.15	771
54.10	37
59.05	19582
61.10	829
62.05	3876
63.05	12551
64.10	3268
65.10	44512
66.10	2433
67.10	60
69.15	76
74.10	859
75.05	534
76.00	446
77.10	3765
78.10	2256
79.10	2013
80.10	145
81.10	4
83.10	65
85.10	70
86.00	721
87.00	268
88.10	304
89.10	14603
90.15	7277
91.10	306514
92.10	23804
93.05	763
94.10	83
98.10	139
103.10	320
104.20	2
105.10	3258
106.10	1000
107.10	830
108.05	1151
109.10	47
111.10	11
112.20	41
116.10	53
118.15	4257
119.10	6373
120.10	340
121.20	527
122.20	190
123.20	2
127.20	65
128.20	104
129.20	50
133.20	15
135.05	414
136.10	15
140.10	5
147.10	128
148.10	54
149.15	1460
150.15	64181
151.15	6467
152.10	616
154.10	1
156.10	31
160.10	43
162.10	108
164.10	44
166.10	14
167.10	1
172.10	28
173.10	43
175.10	31
180.10	5
181.10	30
182.10	12
183.10	14
185.10	16
188.10	42
189.10	24
190.10	14
191.10	17
192.10	33
193.10	3
196.10	18
199.10	22
205.10	18
206.10	6
208.10	29
212.10	7
215.10	38
216.10	14
220.10	3
224.10	18
227.10	2
228.10	42
230.10	7
231.10	20
232.10	7
233.10	20
234.10	62
236.10	38
237.10	37
238.10	10
243.10	18
244.10	38
251.10	35
252.10	131
254.10	47
257.10	62
258.10	39
260.10	12
261.10	24
262.10	1
264.10	12
265.10	16
266.10	60
274.10	1
280.10	23
287.10	30
291.10	41
295.10	14
296.10	6
298.10	11
304.10	22
306.10	33
310.10	22
311.10	19
313.10	29
314.10	47
319.10	38
321.10	15
322.10	7
323.10	42
324.10	28
325.10	48
326.10	46
330.10	30
331.10	8
332.10	42
333.10	22
334.10	17
335.10	19
336.10	16
337.10	13
338.10	11
341.10	15
342.10	26
343.10	12
344.10	35
346.10	8
347.10	10
350.10	6
353.10	17
356.10	29
359.10	2
365.10	32
366.10	19
368.10	24
370.10	26
371.10	57
373.10	16
374.10	11
375.10	53
376.10	21
377.10	70
379.10	29
382.10	32
383.10	5
385.10	5
386.10	18
388.10	8
394.10	10
395.10	16
397.10	25
398.10	45
400.10	20
[MS Spectrum]	
# of Peaks	187
Raw Spectrum	5.563 -> 5.567 (scan : 2139 -> 2141)
Background	5.548 <-> 5.602 (scan : 2130 <-> 2162)
Base Peak	m/z 43.10 (Inten : 8,925)
Event#	1
m/z	Absolute Intensity
36.00	15
38.00	19
39.10	1320
40.05	82
41.10	7495
42.10	2217
43.10	8925
44.05	228
47.10	63
49.10	49
50.10	42
51.10	25
52.10	23
53.10	486
54.15	1399
55.10	7627
56.10	6760
57.15	5057
58.15	496
61.00	40
62.00	112
66.10	80
67.10	1333
68.15	1023
69.15	7356
70.15	5372
71.15	1969
72.20	154
76.20	19
77.10	76
78.10	107
79.10	215
80.20	53
81.20	244
82.15	1509
83.15	4802
84.15	3021
85.15	863
88.10	41
90.10	50
92.15	140
94.20	38
95.10	390
96.15	494
97.15	3499
98.15	1307
99.20	177
101.20	158
107.20	27
108.20	116
109.20	162
110.20	193
111.20	1233
112.20	366
115.20	76
117.20	2
121.20	169
122.20	127
124.20	165
125.20	381
126.20	216
127.20	73
128.20	75
129.20	57
130.20	15
131.20	44
133.20	28
134.20	18
137.20	2
138.20	118
139.20	139
140.20	63
142.20	33
147.20	13
149.10	30
152.10	23
156.10	18
162.10	57
164.10	43
168.10	106
171.10	53
173.10	10
179.10	13
181.10	23
183.10	15
188.10	35
189.10	26
192.10	16
193.10	3
195.10	37
198.10	8
200.10	11
202.10	5
205.10	4
206.10	8
207.10	7
208.10	4
213.10	1
215.10	25
220.10	27
221.10	16
223.10	21
225.10	37
226.10	55
229.10	21
231.10	15
233.10	21
234.10	58
236.10	11
240.10	25
241.10	12
245.10	35
246.10	78
248.10	16
250.10	14
252.10	16
253.10	46
254.10	1
256.10	14
257.10	10
259.10	40
261.10	16
264.10	20
265.10	88
266.10	47
267.10	58
271.10	11
272.10	24
274.10	18
276.10	3
279.10	38
280.10	7
284.10	8
287.10	36
288.10	12
289.10	43
292.10	15
293.10	6
295.10	6
300.10	7
304.10	37
306.10	14
309.10	28
310.10	40
311.10	40
313.10	5
316.10	2
318.10	7
319.10	29
322.10	41
324.10	7
325.10	12
327.10	39
328.10	5
329.10	38
330.10	18
332.10	4
333.10	27
336.10	55
339.10	44
340.10	4
341.10	64
343.10	11
345.10	39
348.10	12
349.10	25
350.10	18
351.10	25
355.10	6
359.10	72
360.10	24
361.10	2
364.10	4
370.10	38
374.10	6
377.10	18
379.10	46
380.10	45
382.10	6
389.10	20
391.10	15
393.10	10
394.10	19
395.10	3
397.10	42
398.10	6
399.10	25
[MS Spectrum]	
# of Peaks	185
Raw Spectrum	5.620 -> 5.623 (scan : 2173 -> 2175)
Background	5.602 <-> 5.648 (scan : 2162 <-> 2190)
Base Peak	m/z 57.15 (Inten : 13,327)
Event#	1
m/z	Absolute Intensity
39.15	727
40.10	219
41.10	3318
42.15	1053
43.10	9909
44.05	386
46.00	88
47.00	54
48.10	40
49.10	37
50.00	67
51.10	83
53.10	215
54.10	88
55.10	1371
56.15	1668
57.15	13327
58.20	497
59.20	241
61.10	58
62.10	16
65.10	70
67.10	213
68.10	115
69.10	408
70.15	1110
71.15	7034
72.10	437
74.10	15
77.10	55
78.10	77
79.10	27
80.10	36
81.10	5
82.10	92
83.25	480
84.10	756
85.15	4025
86.20	141
89.20	28
93.10	196
94.10	10
96.10	32
98.10	539
99.20	864
100.20	78
101.20	17
102.20	1
103.20	24
108.20	10
112.20	472
113.20	378
115.20	5
116.20	1
117.20	28
118.20	73
121.20	111
122.20	74
124.20	21
126.20	176
127.20	301
128.20	26
133.20	37
134.20	36
135.20	29
136.20	36
137.20	39
138.20	41
139.20	25
140.20	107
141.20	48
142.20	74
147.20	35
149.20	10
151.20	46
153.20	22
157.20	73
158.20	16
160.20	41
162.10	34
164.20	1
170.10	396
172.20	4
173.20	34
174.20	5
176.10	7
177.10	22
179.20	38
180.10	1
181.20	26
182.20	57
185.20	4
186.10	10
187.20	55
189.10	30
190.10	17
192.20	49
195.20	41
197.10	34
199.20	18
200.10	1
201.10	22
203.20	11
208.20	26
211.20	2
212.20	12
213.20	22
217.20	48
219.20	1
221.20	11
222.20	56
223.20	57
225.10	41
227.20	20
229.20	5
230.20	24
235.20	10
236.20	20
239.20	8
242.20	7
245.20	14
246.10	6
247.10	17
248.20	8
251.10	22
252.10	43
255.10	4
259.20	1
264.10	11
266.20	24
268.10	67
269.20	31
272.20	9
274.20	24
277.20	35
280.20	23
281.20	34
284.20	46
289.20	9
291.20	3
296.20	17
297.10	12
300.10	19
303.10	4
308.20	9
310.10	24
319.10	29
322.10	38
324.10	34
325.20	25
328.20	4
330.10	5
332.20	5
333.10	13
336.10	52
337.10	16
339.10	12
340.10	27
342.10	3
344.20	6
347.10	14
348.20	13
350.10	47
351.10	20
354.20	4
355.10	8
356.10	2
358.20	54
359.10	60
360.10	34
361.10	33
367.20	10
368.20	6
369.20	48
375.20	38
377.10	12
380.10	20
381.20	35
382.20	20
385.20	8
389.10	22
391.20	55
394.10	3
397.20	11
400.20	42
[MS Spectrum]	
# of Peaks	199
Raw Spectrum	5.708 -> 5.712 (scan : 2226 -> 2228)
Background	5.648 <-> 5.758 (scan : 2190 <-> 2256)
Base Peak	m/z 43.15 (Inten : 3,170)
Event#	1
m/z	Absolute Intensity
35.00	54
36.00	30
39.10	239
41.10	1651
42.15	324
43.15	3170
44.10	162
46.10	17
51.10	237
53.10	184
54.10	158
55.15	1773
56.10	1273
57.15	3089
58.10	107
59.10	210
60.05	255
63.10	82
65.10	294
66.10	47
67.10	385
68.10	27
69.10	937
70.15	1105
71.15	2103
72.20	76
73.15	124
75.20	52
76.10	73
77.20	157
79.05	390
80.10	41
81.10	69
82.10	45
83.10	498
84.10	1093
85.10	1161
86.10	362
88.10	16
91.10	70
93.10	131
94.10	63
96.10	115
97.15	694
98.20	497
99.20	110
102.20	45
105.20	137
106.20	279
107.20	171
108.20	160
109.20	19
110.20	140
111.20	257
112.20	71
114.10	9
115.20	75
116.10	54
117.20	48
119.10	56
120.20	91
121.20	162
125.20	62
126.20	136
127.20	51
128.20	304
129.20	70
131.20	54
134.20	24
135.20	35
136.10	5
137.20	18
138.20	18
140.10	190
141.10	34
145.10	25
147.20	36
149.20	22
152.20	3
153.10	3
154.20	5
156.20	39
160.10	25
161.10	18
162.20	24
163.10	3
164.20	3
167.10	10
170.10	22
173.20	62
175.20	29
176.20	33
178.20	13
179.20	25
181.20	27
185.20	63
187.10	36
189.10	52
192.20	31
195.20	5
200.20	27
202.10	3
205.10	33
206.20	45
208.10	1
210.10	35
215.20	28
217.20	34
219.20	22
221.20	2
223.20	44
225.20	60
227.20	40
228.20	51
230.20	21
233.10	26
234.20	17
237.10	12
241.20	7
244.20	28
245.20	58
248.20	3
252.20	29
253.20	25
254.20	80
256.10	1
258.20	13
259.10	14
260.20	25
261.20	20
263.10	17
265.20	22
266.20	68
268.10	26
269.10	20
272.20	12
273.20	19
274.10	6
275.10	2
277.10	66
279.10	38
280.20	5
281.10	23
285.10	14
287.20	21
289.20	9
290.10	11
294.10	40
298.20	36
300.20	33
303.20	19
304.20	4
305.20	11
307.20	33
309.20	89
310.20	7
311.20	22
314.20	23
315.10	13
316.20	1
319.20	43
320.20	5
322.10	16
323.10	44
324.20	34
326.10	11
327.10	23
328.10	17
334.10	34
337.20	28
338.20	2
339.10	10
340.20	42
342.20	10
343.20	47
344.20	39
345.20	15
350.20	46
351.20	4
356.20	17
358.20	35
361.10	45
362.10	11
363.20	13
364.20	5
367.20	20
368.20	61
369.20	37
371.20	19
373.20	31
377.20	54
379.20	28
380.20	28
388.20	47
389.20	35
393.10	33
398.20	6
399.20	22
400.10	20
[MS Spectrum]	
# of Peaks	188
Raw Spectrum	6.078 -> 6.082 (scan : 2448 -> 2450)
Background	6.062 <-> 6.122 (scan : 2438 <-> 2474)
Base Peak	m/z 91.10 (Inten : 4,501)
Event#	1
m/z	Absolute Intensity
35.00	27
39.10	635
41.15	2891
42.15	1042
43.10	4324
44.10	458
45.10	58
46.10	60
49.10	6
50.10	15
51.10	82
53.10	221
54.10	60
55.15	3093
56.15	1291
57.15	2819
58.10	213
60.10	130
61.10	10
62.10	108
63.10	87
65.10	37
67.10	157
68.10	122
69.15	1575
70.20	672
71.15	1141
72.20	100
73.10	57
75.20	106
76.10	48
77.10	123
79.20	72
80.20	49
81.20	102
82.10	98
83.10	294
84.10	323
85.20	527
87.20	51
91.10	4501
92.10	343
93.10	1111
94.10	90
95.10	32
96.10	103
97.15	510
98.10	56
99.10	57
101.10	51
105.15	542
106.20	51
107.10	214
108.10	32
109.10	3
112.20	122
115.10	25
116.10	2
117.20	12
120.10	8
125.10	33
128.10	22
129.10	62
130.10	9
131.10	71
134.10	9
135.10	134
138.10	38
140.20	30
146.10	18
147.10	32
149.10	18
150.10	37
152.20	16
154.10	68
155.10	31
160.20	45
163.10	24
164.10	1
166.20	45
169.10	19
173.10	49
180.10	10
184.10	2
185.20	48
190.10	18
191.10	40
192.10	6
193.10	60
194.20	1
196.10	11
197.10	17
199.10	22
200.10	13
202.10	23
208.10	61
210.20	26
214.10	61
216.10	52
217.20	21
218.10	24
219.10	21
221.20	34
222.10	26
228.20	19
230.20	5
232.10	8
234.20	12
235.20	5
237.10	10
240.10	32
243.10	66
245.20	3
249.10	12
250.20	21
253.20	5
254.20	23
255.10	39
260.10	59
261.10	2
262.10	37
264.20	7
267.10	11
269.10	27
270.10	2
272.20	8
273.10	3
279.10	51
283.20	65
284.10	106
286.10	10
287.10	11
291.10	21
292.10	31
293.20	22
294.20	37
295.10	27
296.10	51
297.10	37
299.10	34
302.20	12
307.20	21
308.10	37
309.20	23
315.10	15
318.10	19
323.20	13
325.10	7
326.10	10
329.20	13
330.10	41
332.10	12
334.10	33
338.10	37
340.10	25
342.20	52
344.20	28
346.10	28
349.10	4
354.20	30
355.10	52
356.20	3
357.20	27
360.10	39
361.10	39
363.10	3
366.10	73
367.10	18
369.20	10
370.10	6
371.10	36
373.20	4
375.10	12
376.20	10
377.20	53
380.20	3
381.10	41
386.10	11
387.20	42
388.10	32
389.20	6
390.10	34
391.20	30
392.20	22
394.10	10
395.10	10
396.20	28
398.10	5
[MS Spectrum]	
# of Peaks	213
Raw Spectrum	6.272 -> 6.275 (scan : 2564 -> 2566)
Background	6.232 <-> 6.322 (scan : 2540 <-> 2594)
Base Peak	m/z 57.15 (Inten : 11,214)
Event#	1
m/z	Absolute Intensity
35.00	11
36.00	7
38.00	87
39.10	394
40.05	589
41.10	3175
42.15	825
43.10	7556
44.10	57
46.10	12
47.10	3
49.10	18
50.10	7
51.10	73
52.10	85
53.10	132
54.10	146
55.15	1649
56.10	1805
57.15	11214
58.10	341
59.10	103
60.10	52
62.10	25
64.10	38
65.10	26
66.10	38
67.10	42
68.10	121
69.10	688
70.15	1040
71.15	5425
72.10	168
73.10	944
74.10	69
75.10	8
76.10	28
77.10	118
78.10	11
79.10	91
80.10	96
81.10	55
82.10	149
83.10	559
84.15	787
85.15	3859
86.20	184
87.20	73
88.10	8
89.10	59
90.10	18
91.10	215
92.20	124
93.20	94
94.10	36
95.10	260
96.10	53
98.15	455
99.15	503
102.10	25
103.20	84
104.10	11
105.10	35
106.10	14
107.10	23
108.10	15
111.10	2
112.20	320
113.25	465
116.20	14
117.20	103
118.20	7
121.20	81
123.20	39
125.20	12
126.20	258
127.10	406
129.20	10
130.10	13
131.10	35
132.10	8
133.20	61
134.10	10
136.10	132
137.20	47
138.20	29
140.20	9
141.10	227
142.20	77
143.10	29
144.10	18
146.20	18
147.10	196
148.10	292
149.10	34
150.10	26
153.20	15
154.20	102
155.20	109
156.20	1
161.20	11
162.10	23
166.20	24
167.20	47
170.10	31
171.10	34
178.10	45
179.20	5
180.10	41
181.20	38
183.20	62
184.20	366
188.20	20
189.20	20
190.10	17
191.10	43
192.20	32
202.10	1
206.20	40
208.10	12
210.10	3
211.20	5
214.10	25
216.20	25
217.20	52
220.20	32
221.10	33
222.10	14
225.20	22
226.10	3
227.20	16
229.20	11
230.10	38
232.20	27
237.20	3
241.10	49
242.20	18
243.10	14
244.10	8
250.10	28
252.10	13
255.10	26
259.20	18
260.10	25
261.20	9
263.10	12
264.20	2
266.20	43
267.10	9
268.20	35
269.20	14
270.20	35
271.10	23
272.20	43
273.20	13
274.10	9
276.10	8
277.20	3
280.20	41
285.10	14
287.20	45
288.10	9
290.10	14
291.20	14
293.10	27
295.20	13
299.20	79
300.20	6
301.10	12
305.10	33
307.20	4
308.20	44
310.10	40
311.20	43
312.10	19
313.20	37
315.10	55
316.10	45
320.20	5
325.10	20
326.20	14
330.20	82
334.20	12
335.20	37
338.10	21
339.10	4
341.20	201
342.10	60
344.10	10
345.20	6
347.10	1
349.20	43
350.10	26
351.20	12
354.20	44
357.20	36
358.20	41
359.10	28
363.10	22
367.10	5
368.20	43
369.10	5
370.10	41
371.10	18
376.20	21
380.10	3
381.20	3
388.10	15
390.20	16
391.20	4
398.20	49
399.10	23
400.10	44
[MS Spectrum]	
# of Peaks	223
Raw Spectrum	6.713 -> 6.717 (scan : 2829 -> 2831)
Background	6.685 <-> 6.805 (scan : 2812 <-> 2884)
Base Peak	m/z 43.10 (Inten : 3,024)
Event#	1
m/z	Absolute Intensity
35.00	30
36.00	14
37.00	70
38.00	56
39.00	222
40.00	50
41.10	2112
42.10	311
43.10	3024
46.10	27
47.10	41
48.10	57
49.10	26
50.10	12
51.10	126
52.10	61
53.10	26
54.10	154
55.15	1659
56.10	1039
57.15	2985
58.10	307
59.10	44
60.10	67
61.20	14
63.10	80
65.10	68
66.10	143
68.10	131
69.15	1157
70.10	472
71.15	1392
72.10	63
73.10	258
74.10	14
75.10	15
76.10	51
77.10	217
81.10	154
82.10	70
83.10	504
84.10	175
85.20	642
88.20	43
90.10	16
91.05	2694
93.15	803
94.10	35
95.10	102
96.10	51
97.15	219
98.20	175
99.20	165
104.10	82
105.10	387
107.10	112
111.20	2
112.10	94
113.10	62
114.20	56
116.10	8
118.20	15
119.10	98
120.20	3
121.10	1
122.10	29
125.20	22
126.10	41
127.20	145
128.10	59
130.10	36
131.20	61
133.10	10
134.20	33
135.20	5
139.20	32
140.10	53
141.20	48
142.10	6
143.10	20
144.10	2
146.10	26
147.20	41
148.10	51
149.10	20
150.20	30
151.10	71
153.20	10
154.10	32
155.10	54
162.10	13
164.20	7
165.10	45
166.20	34
167.20	8
169.20	122
170.20	18
172.10	35
173.10	19
175.20	3
178.20	9
179.10	55
181.20	20
182.20	33
184.20	2
186.10	9
187.20	2
189.20	47
190.20	27
192.20	15
193.20	26
196.20	5
198.20	67
199.10	5
203.10	30
206.10	35
207.10	66
208.20	29
209.10	95
210.10	31
211.10	17
214.20	16
215.10	39
221.20	68
225.10	21
226.20	37
233.20	27
235.20	12
236.10	18
240.10	39
241.20	9
242.10	22
243.10	40
244.20	28
245.10	18
246.10	20
247.10	35
249.10	2
251.10	1
252.10	20
253.10	15
256.20	7
257.10	1
258.10	21
259.10	4
261.20	48
262.10	37
264.20	6
265.10	51
267.10	37
268.10	33
272.10	43
273.10	24
277.10	2
279.10	17
281.10	67
283.10	13
286.20	27
289.10	40
291.10	12
293.10	18
294.20	24
295.20	24
296.20	29
297.10	13
300.10	17
301.20	10
302.20	22
303.10	5
304.10	33
305.10	4
308.20	40
309.10	5
311.10	31
313.10	2
314.10	24
317.20	35
319.20	25
320.10	18
322.10	48
323.10	1
324.20	14
325.20	15
327.10	48
329.10	25
334.20	1
336.10	10
337.10	76
344.10	13
345.20	31
346.10	1
347.20	47
348.10	19
351.20	18
353.10	49
356.10	42
357.10	10
358.10	31
359.10	28
360.10	31
361.20	40
362.20	50
364.10	58
366.10	50
367.20	23
368.10	61
369.10	2
372.10	8
373.10	41
375.10	44
377.20	8
379.10	48
381.10	33
382.10	6
385.10	15
386.10	21
387.10	21
388.10	19
390.20	40
391.10	46
394.10	29
397.10	12
398.20	31
[MS Spectrum]	
# of Peaks	215
Raw Spectrum	6.818 -> 6.822 (scan : 2892 -> 2894)
Background	6.805 <-> 6.845 (scan : 2884 <-> 2908)
Base Peak	m/z 57.15 (Inten : 3,463)
Event#	1
m/z	Absolute Intensity
38.00	17
39.05	726
40.05	53
41.15	2822
42.10	956
43.10	3293
44.05	83
47.00	33
50.00	41
53.10	251
54.15	467
55.15	3251
56.10	2395
57.15	3463
58.10	65
63.10	103
64.10	74
65.10	47
66.10	77
67.15	723
68.10	766
69.15	2535
70.15	2644
71.15	1234
74.20	79
75.20	3
76.20	6
77.20	7
78.10	68
79.20	9
81.15	355
82.15	925
83.15	2256
84.15	1422
85.15	525
90.10	43
92.10	53
93.10	104
95.20	111
96.15	463
97.15	2146
98.15	638
100.20	58
104.20	92
107.20	62
109.20	81
110.20	498
111.15	631
112.20	282
114.20	38
123.20	61
124.20	77
125.20	291
126.20	170
127.20	40
130.20	16
134.20	81
135.20	21
139.20	26
140.20	153
141.20	61
142.20	6
143.20	33
148.20	12
150.20	62
153.20	84
154.20	124
157.20	55
158.20	54
159.20	18
160.20	44
161.20	43
162.20	3
163.20	65
164.20	25
165.20	21
167.20	49
168.20	16
169.20	10
170.20	39
171.20	20
173.20	47
177.20	32
181.20	27
182.20	14
183.20	11
184.20	52
187.20	20
188.20	19
189.20	25
192.20	16
194.20	51
200.20	5
201.20	39
202.20	49
203.20	33
204.20	30
205.20	5
206.20	29
207.20	101
208.20	35
209.20	9
213.20	14
214.20	48
217.20	46
218.20	19
219.20	11
223.20	14
228.20	13
229.20	7
230.20	16
232.20	25
236.20	10
237.20	14
239.20	53
241.20	42
242.20	10
243.20	86
246.20	3
248.20	21
249.20	24
250.20	22
252.20	49
253.20	2
254.20	17
255.20	1
258.20	8
259.20	14
261.20	36
262.20	70
266.20	8
267.20	40
268.20	25
270.20	37
271.20	16
272.20	2
273.20	14
274.20	6
278.20	35
279.20	24
281.20	50
282.20	10
283.20	9
284.20	67
286.20	63
287.20	59
288.20	41
289.20	4
291.20	13
294.20	1
297.20	34
298.20	34
299.20	37
300.20	37
301.20	14
302.20	48
305.20	32
306.20	31
307.20	34
311.20	39
312.20	23
313.20	92
315.20	23
317.20	67
319.20	15
321.20	41
322.20	33
323.20	50
324.20	26
325.20	10
326.20	32
327.20	57
328.20	4
330.20	6
331.20	10
332.20	9
333.20	4
336.20	31
339.20	16
340.20	4
344.20	2
347.20	24
348.20	13
349.20	16
352.20	8
353.20	36
360.20	42
361.20	44
362.20	12
363.20	33
364.20	46
366.20	25
367.20	23
368.20	77
369.20	45
370.20	3
371.20	58
372.20	15
373.20	3
375.20	4
376.20	19
377.20	19
378.20	22
379.20	2
381.20	31
382.20	2
383.20	9
385.20	14
386.20	12
390.20	55
391.20	52
392.20	51
396.20	24
398.20	39
400.20	48
[MS Spectrum]	
# of Peaks	214
Raw Spectrum	6.862 -> 6.865 (scan : 2918 -> 2920)
Background	6.845 <-> 6.898 (scan : 2908 <-> 2940)
Base Peak	m/z 57.15 (Inten : 17,597)
Event#	1
m/z	Absolute Intensity
36.00	28
39.15	514
40.05	106
41.10	4213
42.15	1368
43.15	11659
44.05	705
46.10	83
47.10	61
52.10	75
53.10	264
54.10	262
55.10	2484
56.10	2437
57.15	17597
58.10	694
61.10	5
64.10	18
65.10	65
66.10	6
67.10	346
68.10	166
69.15	911
70.10	1651
71.15	9441
72.15	492
73.10	209
74.10	4
75.10	80
78.10	52
79.10	15
82.15	510
83.15	724
84.15	1107
85.15	6021
86.10	396
87.10	2
91.10	80
92.10	17
93.10	131
94.10	82
95.10	215
97.15	287
98.15	782
99.20	1401
100.20	100
101.20	75
102.20	13
103.20	7
105.20	217
106.20	38
107.20	89
110.20	39
111.20	152
112.10	528
113.25	680
114.20	92
116.30	8
119.30	93
120.20	24
123.30	16
124.20	30
126.20	317
127.25	518
130.30	35
131.30	72
134.30	40
136.30	89
137.30	89
140.30	175
141.30	306
142.30	76
144.30	10
146.30	14
147.30	83
148.30	39
152.30	29
154.30	69
155.30	72
156.30	57
157.30	112
158.30	37
159.30	35
160.30	68
161.30	39
165.30	5
166.30	62
167.30	24
168.30	26
169.30	34
170.30	19
171.30	10
172.30	35
174.30	12
181.30	34
182.30	49
185.30	35
187.30	28
188.30	6
191.30	21
194.30	5
195.30	23
196.30	73
198.30	426
199.30	10
200.30	28
201.30	44
203.30	13
204.30	14
205.30	29
206.30	36
210.30	32
211.30	10
213.30	16
214.30	14
215.30	24
217.30	31
219.30	10
221.30	29
225.30	5
228.30	53
229.30	33
230.30	32
231.30	2
233.30	3
236.30	22
238.30	40
239.30	11
240.30	11
242.30	38
243.30	16
244.30	20
245.30	2
247.30	4
249.30	2
250.30	38
255.30	26
256.30	15
259.30	43
261.30	39
262.30	26
263.30	14
265.30	47
266.30	72
267.30	47
269.30	38
270.30	21
271.30	37
273.30	5
275.30	5
276.30	20
278.30	1
281.30	9
283.30	24
284.30	34
287.30	47
293.30	4
294.30	16
295.30	28
297.30	5
298.30	31
299.30	63
300.30	12
303.30	20
304.30	22
305.30	50
306.30	3
309.30	45
310.30	7
313.30	54
314.30	17
315.30	34
316.30	23
317.30	17
318.30	22
319.30	29
320.30	25
322.30	48
323.30	3
325.30	40
327.30	9
328.30	28
336.30	6
340.30	67
341.30	42
342.30	56
344.30	21
346.30	1
347.30	18
349.30	67
350.30	25
351.30	13
355.30	24
359.30	13
360.30	54
363.30	9
364.30	4
367.30	8
368.30	21
369.30	11
372.30	37
373.30	66
375.30	18
376.30	28
377.30	41
378.30	8
380.30	49
385.30	22
388.30	36
389.30	8
391.30	34
392.30	50
399.30	40
400.30	25
[MS Spectrum]	
# of Peaks	222
Raw Spectrum	7.110 -> 7.113 (scan : 3067 -> 3069)
Background	7.082 <-> 7.128 (scan : 3050 <-> 3078)
Base Peak	m/z 94.10 (Inten : 1,812)
Event#	1
m/z	Absolute Intensity
35.00	15
39.10	316
41.10	1013
43.10	248
44.05	138
49.10	24
51.10	20
53.10	141
55.15	850
57.10	1220
58.10	141
60.10	72
63.10	49
64.10	113
65.10	142
66.10	21
67.15	864
68.10	4
70.10	144
71.10	383
73.10	100
75.10	55
77.15	438
78.10	274
79.10	846
80.10	211
81.10	580
82.15	383
83.20	380
84.20	29
85.15	92
86.10	15
89.10	15
91.15	1460
92.15	226
93.05	1165
94.10	1812
95.10	1432
96.20	79
97.15	165
99.10	120
100.10	60
102.20	63
103.10	13
104.10	100
105.15	1292
106.15	562
107.15	1223
108.20	961
109.15	753
110.10	217
111.20	194
112.10	46
115.10	9
116.20	40
117.10	73
118.10	10
119.15	148
120.15	629
121.15	581
122.20	256
123.20	197
124.10	47
128.20	35
129.10	59
130.20	38
131.20	43
132.20	62
133.20	1233
134.20	453
135.20	737
136.20	273
137.20	305
138.20	90
139.20	8
140.20	76
142.20	46
144.20	67
145.20	102
146.20	11
147.20	780
148.20	113
149.10	131
150.10	57
152.20	14
153.20	140
156.20	12
157.20	118
161.15	1131
162.10	284
163.10	284
166.10	29
167.10	14
168.10	36
169.10	18
171.10	6
172.10	34
174.10	21
175.10	539
176.10	73
178.10	4
181.10	69
183.10	11
184.10	44
185.10	7
188.10	33
189.10	894
190.10	105
191.10	71
192.10	8
193.10	55
194.10	21
197.10	2
198.10	48
202.10	12
203.10	43
204.10	938
205.10	58
206.10	37
208.10	51
210.10	24
211.10	1
216.10	28
217.10	1
218.10	5
219.10	15
221.10	29
222.10	9
224.10	4
226.10	35
227.10	21
228.10	29
229.10	31
230.10	50
233.10	48
235.10	5
238.10	49
241.10	45
245.10	2
246.10	10
247.10	1
248.10	71
250.10	35
258.10	25
261.10	7
262.10	6
263.10	35
264.10	26
265.10	50
266.10	62
268.10	5
270.10	42
271.10	32
272.10	72
273.10	10
274.10	45
275.10	7
276.10	56
277.10	45
281.10	99
282.10	56
285.10	46
287.10	67
288.10	3
291.10	48
292.10	18
294.10	14
295.10	137
296.10	20
298.10	9
300.10	12
303.10	12
306.10	2
307.10	63
310.10	22
313.10	3
316.10	37
321.10	31
323.10	28
325.10	66
326.10	66
327.10	14
332.10	54
335.10	79
337.10	47
338.10	43
339.10	2
341.10	25
343.10	2
345.10	45
346.10	12
348.10	10
349.10	20
350.10	13
351.10	38
352.10	43
353.10	46
354.10	21
355.10	34
356.10	30
357.10	13
359.10	34
362.10	34
363.10	13
365.10	29
366.10	33
367.10	24
370.10	48
371.10	7
372.10	23
376.10	30
378.10	36
379.10	41
381.10	46
382.10	3
385.10	16
389.10	9
390.10	32
391.10	8
392.10	9
395.10	58
396.10	8
[MS Spectrum]	
# of Peaks	214
Raw Spectrum	7.148 -> 7.152 (scan : 3090 -> 3092)
Background	7.128 <-> 7.198 (scan : 3078 <-> 3120)
Base Peak	m/z 69.10 (Inten : 9,233)
Event#	1
m/z	Absolute Intensity
35.00	52
38.00	3
39.10	795
41.15	6752
42.10	301
43.10	1216
44.10	344
45.10	67
46.10	9
48.10	34
49.10	59
50.10	12
51.10	160
52.10	29
53.10	832
54.10	186
55.15	2619
56.15	360
57.15	1583
60.10	26
61.10	18
63.10	12
65.10	308
67.10	1827
68.10	657
69.10	9233
70.15	1447
71.15	1424
75.10	118
76.10	47
77.15	1062
78.10	82
79.10	1751
80.10	292
81.15	1529
82.10	589
83.20	332
84.10	26
85.15	466
91.10	1706
92.10	878
93.15	4455
94.10	594
95.10	541
96.10	127
97.10	98
98.10	135
99.20	330
100.10	7
101.20	24
102.20	145
103.10	131
104.10	72
105.10	922
106.20	282
107.15	162
108.10	160
109.20	326
110.20	107
111.20	107
112.20	35
113.20	121
114.20	82
115.20	22
116.20	29
117.20	26
119.10	280
120.20	1564
121.20	289
122.20	44
123.20	107
128.20	8
129.20	90
131.20	90
133.20	1798
134.20	273
137.20	31
138.20	104
139.20	39
140.20	138
141.20	64
144.20	5
145.20	76
148.00	74
149.20	47
150.20	42
152.20	7
153.20	32
156.30	78
157.30	72
160.30	14
161.15	635
162.20	341
163.20	111
164.20	30
168.20	17
169.20	107
170.20	29
171.20	21
172.20	23
173.20	29
174.20	15
175.20	84
176.20	3
178.20	23
179.20	82
184.20	28
185.20	24
188.20	34
190.20	67
191.20	30
192.20	17
193.20	30
194.20	58
198.20	14
200.20	15
201.20	13
203.20	4
204.20	220
205.20	30
208.20	70
209.20	36
211.20	4
215.20	10
216.20	39
218.20	16
219.20	6
223.20	15
226.20	17
227.20	32
229.20	12
230.20	2
231.20	5
232.20	4
233.20	40
235.20	36
236.20	13
239.20	22
244.20	1
245.20	11
247.20	4
248.20	2
250.20	30
251.20	88
259.20	8
260.20	16
263.20	52
264.20	9
265.20	58
267.20	8
268.20	10
269.20	11
270.20	20
271.20	15
272.20	26
273.20	34
274.20	29
276.20	6
277.20	17
282.20	71
285.20	7
286.20	24
287.20	5
288.20	13
295.20	32
296.20	23
299.20	45
302.20	5
303.20	5
306.20	17
307.20	13
310.20	4
312.20	7
313.20	40
314.20	44
317.20	39
318.20	18
323.20	20
324.20	16
325.20	42
328.20	36
329.20	11
331.20	16
332.20	38
334.20	13
335.20	1
336.20	6
338.20	49
339.20	7
349.20	49
351.20	28
352.20	43
353.20	12
354.20	64
358.20	20
359.20	16
362.20	25
363.20	53
367.20	10
368.20	18
370.20	64
371.20	18
374.20	21
376.20	31
377.20	2
379.20	22
382.20	21
384.20	2
387.20	24
388.20	4
391.20	32
395.20	26
396.20	2
398.20	13
[MS Spectrum]	
# of Peaks	215
Raw Spectrum	7.342 -> 7.345 (scan : 3206 -> 3208)
Background	7.292 <-> 7.368 (scan : 3176 <-> 3222)
Base Peak	m/z 57.15 (Inten : 6,988)
Event#	1
m/z	Absolute Intensity
35.00	2
37.00	83
38.00	14
39.15	420
40.00	328
41.10	2143
42.10	491
43.10	4840
44.00	371
48.00	40
49.00	33
50.00	4
51.00	35
52.00	48
53.00	90
54.00	55
55.10	976
56.10	986
57.15	6988
58.10	395
60.10	108
62.10	55
64.10	56
65.10	133
66.10	57
67.15	331
68.10	234
69.10	378
70.10	1080
71.15	4807
72.20	164
73.10	86
74.20	1
76.10	33
77.10	130
78.20	146
79.10	44
81.10	93
82.10	25
83.10	383
84.15	491
85.20	2296
86.20	71
88.20	39
91.10	1262
92.10	247
94.10	101
95.10	125
96.10	61
97.15	209
98.20	398
99.20	814
100.20	91
102.20	31
103.20	114
104.20	122
105.20	248
107.20	230
108.20	86
109.20	289
110.20	11
112.20	361
113.15	550
115.20	86
116.20	68
117.20	57
118.10	46
119.10	19
120.20	80
121.20	23
123.20	34
124.20	19
126.20	69
127.10	239
129.20	49
130.10	26
131.10	108
132.20	89
133.20	42
134.20	79
135.20	169
136.20	10
137.20	58
138.20	7
140.20	50
141.20	73
143.20	83
144.20	31
145.10	105
146.10	45
147.10	48
149.20	50
150.10	58
151.10	27
152.20	4
154.20	93
155.10	96
156.20	61
157.20	60
161.20	127
162.20	29
164.20	57
165.20	43
167.20	18
168.20	5
169.20	38
173.20	12
174.20	32
175.20	56
178.20	32
179.20	25
180.10	20
182.20	107
186.10	131
188.20	61
189.10	30
191.10	32
193.20	32
195.20	10
196.10	6
199.10	49
200.10	11
202.20	130
203.20	14
204.20	84
208.00	9
210.00	10
211.00	21
212.00	194
213.90	20
214.90	36
216.00	22
218.90	27
220.00	15
225.00	40
225.90	13
226.90	22
229.90	55
230.90	3
231.90	30
232.90	13
238.90	36
244.00	12
250.90	67
252.00	10
253.90	31
255.90	24
258.90	2
260.00	7
261.00	16
265.90	25
267.00	14
268.00	4
269.90	81
271.00	29
272.00	31
276.90	10
280.00	14
283.90	14
284.90	34
287.00	11
288.90	18
290.90	67
292.90	20
297.00	9
298.90	43
300.00	16
302.90	14
303.90	6
304.90	38
308.90	20
309.90	91
311.00	38
312.90	10
316.00	39
321.00	13
321.90	12
323.00	6
323.90	69
324.90	2
326.90	20
329.00	9
329.90	39
330.90	21
332.90	27
334.90	1
337.00	14
338.90	6
342.90	41
348.90	44
350.90	30
354.90	14
355.90	8
357.90	42
358.90	34
362.90	6
363.90	2
364.90	9
365.90	6
367.00	17
368.00	40
368.90	27
370.00	18
374.00	1
379.90	29
381.00	30
382.00	1
384.00	47
388.90	2
390.90	49
393.90	11
394.90	29
396.00	46
397.00	15
398.00	11
[MS Spectrum]	
# of Peaks	202
Raw Spectrum	7.758 -> 7.762 (scan : 3456 -> 3458)
Background	7.738 <-> 7.782 (scan : 3444 <-> 3470)
Base Peak	m/z 57.15 (Inten : 16,719)
Event#	1
m/z	Absolute Intensity
36.00	11
37.00	25
38.00	39
39.00	91
41.10	3695
42.10	1269
43.10	10495
44.05	357
45.10	101
50.10	15
51.10	19
53.10	69
54.10	285
55.15	2694
56.15	2124
57.15	16719
58.15	757
59.20	49
65.20	5
66.10	49
67.10	347
68.10	53
69.10	1296
70.15	1128
71.15	9674
72.20	317
73.10	150
74.20	75
76.10	54
78.10	22
79.10	42
81.10	75
82.10	210
83.15	780
84.15	1069
85.15	6593
86.20	382
88.20	28
89.20	65
90.10	8
94.20	112
95.20	131
96.10	171
97.15	845
98.20	398
99.20	1906
100.20	25
106.20	109
109.20	55
110.20	101
111.15	219
112.20	556
113.15	926
118.20	43
120.20	27
121.20	80
124.20	3
125.20	99
126.30	444
127.20	581
128.20	60
130.20	81
133.20	70
136.20	24
137.20	33
140.20	284
141.20	326
142.20	70
143.20	3
145.20	16
147.20	146
150.20	28
153.20	33
154.20	176
155.20	397
156.20	39
158.20	9
161.20	75
163.20	66
165.20	30
167.20	52
168.20	19
169.20	166
170.20	22
171.20	22
172.20	39
173.20	28
175.20	34
177.20	21
178.20	67
180.20	7
182.20	47
185.20	7
186.20	71
189.20	17
191.20	52
192.20	74
195.20	34
196.20	67
197.20	48
198.20	29
199.20	10
200.20	3
202.20	8
203.20	15
204.20	11
205.20	18
211.00	49
212.00	62
219.00	41
221.00	23
223.00	12
224.00	158
226.00	235
227.00	47
229.00	5
233.00	10
234.00	23
235.00	22
236.00	30
237.00	18
238.00	38
239.00	13
240.00	32
245.00	4
246.00	33
247.00	27
248.00	11
250.00	47
251.00	102
255.00	34
258.00	10
260.00	12
261.00	12
263.00	9
264.00	6
271.00	3
272.00	53
277.00	2
280.00	19
286.00	4
288.00	28
289.00	59
291.00	18
293.00	15
294.00	16
295.00	44
296.00	47
297.00	42
299.00	19
300.00	7
302.00	38
305.00	18
306.00	21
308.00	63
310.00	25
311.00	16
312.00	15
314.00	20
315.00	9
317.00	3
320.00	20
321.00	3
322.00	3
324.00	41
326.00	43
327.00	5
329.00	22
330.00	12
331.00	33
335.00	4
336.00	3
338.00	10
339.00	25
340.00	26
341.00	2
343.00	2
344.00	5
346.00	20
347.00	35
349.00	3
350.00	59
353.00	18
354.00	15
355.00	6
357.00	53
361.00	16
362.00	53
364.00	36
368.00	30
369.00	22
374.00	11
375.00	5
378.00	8
379.00	16
383.00	4
385.00	23
388.00	12
389.00	4
391.00	25
397.00	12
399.00	21
[MS Spectrum]	
# of Peaks	210
Raw Spectrum	8.157 -> 8.160 (scan : 3695 -> 3697)
Background	8.132 <-> 8.182 (scan : 3680 <-> 3710)
Base Peak	m/z 43.10 (Inten : 3,263)
Event#	1
m/z	Absolute Intensity
35.00	5
37.00	13
38.00	12
39.20	341
40.05	17
41.10	696
42.10	166
43.10	3263
44.05	234
46.10	6
47.10	49
49.10	28
50.10	53
51.10	170
53.10	58
54.10	36
55.10	583
56.05	256
57.15	2771
58.10	61
59.10	19
60.10	8
64.10	16
65.10	190
66.10	320
67.20	535
69.10	536
70.15	212
71.15	2151
72.10	166
74.10	75
76.10	29
78.10	69
79.10	129
80.10	155
82.10	121
83.10	213
84.10	186
85.20	1612
86.10	155
89.10	174
90.10	59
91.20	131
92.20	147
93.10	253
94.10	254
95.15	511
96.15	160
97.15	6
98.20	16
99.20	263
100.20	1
101.20	11
103.20	66
104.20	31
105.20	31
106.20	63
108.20	169
109.20	121
110.20	17
113.20	317
115.20	130
116.20	48
120.20	147
121.20	268
122.20	18
123.20	114
127.20	243
128.20	42
130.20	9
131.20	2
132.20	66
133.15	28
135.20	123
136.20	114
137.20	57
138.20	34
140.20	52
141.20	156
143.20	81
144.20	29
145.20	49
146.20	56
147.20	181
149.20	105
150.20	35
151.20	12
152.20	19
153.20	182
155.20	50
157.20	59
158.20	54
160.20	65
161.20	25
163.20	44
165.20	4
168.20	28
169.20	170
171.20	6
172.20	58
173.20	51
174.20	134
181.20	13
182.20	108
183.20	68
184.20	46
185.20	53
187.20	17
188.20	12
189.20	108
190.20	35
192.20	24
193.20	2
194.20	22
196.20	44
197.20	134
198.20	41
199.20	92
201.20	64
202.20	26
204.20	7
205.20	71
209.00	23
212.00	91
213.00	3
215.00	5
218.00	23
219.00	21
221.00	29
231.00	45
232.00	23
233.00	9
234.00	33
235.00	23
237.00	83
239.00	10
241.00	73
244.00	1
246.00	10
247.00	1
251.00	40
252.00	8
253.00	54
254.00	14
255.00	21
256.00	29
258.00	16
260.00	8
263.00	21
265.00	50
267.00	26
268.00	12
269.00	55
270.00	23
271.00	36
275.00	13
277.00	2
278.00	36
279.00	12
280.00	3
282.00	112
285.00	8
287.00	7
290.00	1
291.00	2
296.00	43
299.00	36
300.00	23
302.00	29
304.00	40
307.00	5
309.00	20
310.00	9
315.00	20
319.00	27
320.00	14
322.00	23
323.00	19
327.00	20
328.00	5
331.00	12
332.00	14
343.00	29
344.00	99
346.00	2
347.00	24
349.00	8
350.00	9
351.00	30
353.00	1
354.00	63
355.00	29
356.00	16
357.00	3
358.00	1
359.00	14
360.00	24
361.00	4
362.00	28
364.00	46
368.00	11
369.00	7
371.00	3
375.00	8
379.00	5
380.00	28
386.00	10
390.00	48
391.00	46
397.00	11
[MS Spectrum]	
# of Peaks	238
Raw Spectrum	8.275 -> 8.278 (scan : 3766 -> 3768)
Background	8.252 <-> 8.365 (scan : 3752 <-> 3820)
Base Peak	m/z 69.15 (Inten : 54,951)
Event#	1
m/z	Absolute Intensity
36.00	3
37.00	83
38.10	96
39.10	6321
40.10	1728
41.10	38122
42.10	2127
43.10	6210
44.05	513
45.10	99
48.00	46
50.10	339
51.10	1020
52.10	539
53.10	5644
54.15	591
55.15	12450
56.10	1666
57.15	4071
58.10	367
59.10	175
60.10	65
61.10	149
62.10	49
63.10	288
64.10	93
65.15	2332
66.15	649
67.10	10171
68.15	6419
69.15	54951
70.10	3558
71.10	1328
72.10	121
73.10	172
74.10	115
75.10	134
76.10	23
77.10	5545
78.10	1011
79.10	9715
80.10	3752
81.10	16955
82.15	3677
83.15	1883
84.10	2261
85.15	325
86.20	42
88.10	33
89.10	125
90.10	60
91.10	9765
92.15	4058
93.15	23941
94.15	4179
95.10	5846
96.10	912
97.20	1168
98.20	293
101.10	57
102.10	77
103.10	640
104.15	249
105.15	7192
106.15	1536
107.15	8671
108.20	1736
109.15	4682
110.20	946
111.20	681
113.20	131
114.20	25
115.15	486
116.20	89
117.10	901
118.20	340
119.15	10188
120.15	3882
121.15	4805
122.20	2099
123.20	4028
124.20	842
125.15	440
127.25	682
128.20	281
129.20	183
130.30	160
131.20	668
132.20	216
133.15	4612
134.20	2114
135.20	1779
136.20	3172
137.20	1167
138.25	522
139.20	260
140.20	78
141.20	6
143.20	192
144.20	135
145.20	228
146.10	50
147.15	1304
148.10	796
149.20	442
150.10	53
151.10	76
152.10	64
153.20	15
154.20	2
157.20	117
158.10	142
159.20	422
160.10	34
161.15	4140
162.25	1124
163.15	396
164.10	31
166.10	88
167.20	63
168.20	29
171.20	34
173.10	53
175.20	442
176.20	182
177.20	204
178.10	32
179.10	284
183.20	77
185.10	129
187.10	177
188.10	10
189.15	1237
190.10	214
191.05	541
192.10	77
193.00	112
194.00	50
195.00	6
196.00	15
199.00	2
202.00	62
203.00	143
204.15	1857
205.10	226
206.00	168
206.95	264
210.90	38
212.00	30
213.90	6
214.90	9
216.90	24
217.90	46
219.00	19
220.00	67
223.00	39
227.90	24
229.00	11
229.90	24
232.90	28
233.90	9
235.00	3
235.90	26
238.00	12
238.90	36
240.90	5
242.00	21
243.00	35
244.00	29
244.90	3
246.90	23
248.00	51
249.00	61
249.90	82
251.90	107
253.90	8
254.90	7
256.00	66
259.90	10
260.90	31
264.00	47
264.90	55
266.00	15
267.00	67
269.00	31
270.00	34
271.00	5
273.90	25
277.00	10
278.90	29
279.90	6
283.90	18
293.90	39
295.00	13
299.00	46
301.00	44
305.00	49
307.00	36
308.00	27
309.00	25
310.00	2
311.00	52
312.00	16
314.00	1
314.90	14
317.00	11
318.90	41
321.00	2
324.00	2
324.90	7
330.00	12
330.90	1
332.90	1
338.00	18
341.00	67
341.90	6
343.90	65
347.00	7
354.00	65
360.00	16
364.00	25
365.90	10
367.00	2
369.00	6
369.90	26
372.00	19
373.00	5
373.90	6
375.00	16
377.00	11
378.90	2
382.00	17
383.90	18
385.00	21
388.00	4
391.00	28
398.00	21
399.00	27
[MS Spectrum]	
# of Peaks	196
Raw Spectrum	8.380 -> 8.383 (scan : 3829 -> 3831)
Background	8.365 <-> 8.435 (scan : 3820 <-> 3862)
Base Peak	m/z 91.10 (Inten : 1,321)
Event#	1
m/z	Absolute Intensity
39.10	164
41.10	135
48.10	3
53.15	5
55.10	56
57.15	10
58.10	94
59.10	6
60.10	101
64.10	31
67.05	195
68.15	39
69.10	282
72.10	135
74.00	166
75.10	117
76.00	51
77.05	157
82.10	130
83.10	104
84.15	603
85.15	34
88.10	42
89.10	17
90.10	19
91.10	1321
92.10	215
94.10	131
95.10	293
96.00	32
99.10	48
103.10	47
105.10	66
107.15	113
110.10	48
111.20	89
112.10	66
115.10	283
116.20	32
119.20	330
120.20	10
121.15	159
123.20	22
124.20	119
125.20	184
127.20	73
128.20	98
129.20	35
131.20	101
132.20	153
133.15	250
138.10	114
140.10	16
143.10	10
144.10	30
148.10	9
149.10	156
150.10	25
151.10	6
152.10	78
153.10	31
156.10	67
158.10	41
159.10	92
162.10	114
167.10	42
168.10	63
169.10	84
171.10	31
173.10	66
174.10	90
176.10	45
178.10	89
186.10	10
188.10	15
189.10	57
191.10	238
192.10	163
193.10	146
194.10	130
195.10	12
196.10	88
197.10	180
198.10	47
202.10	106
203.10	75
207.00	358
207.95	295
209.00	146
209.90	89
211.00	77
212.00	88
213.00	25
214.00	45
214.90	3
216.00	56
218.90	61
220.00	62
222.00	34
228.00	40
229.00	16
231.90	7
234.00	42
236.00	106
237.00	38
239.00	32
239.90	62
241.00	11
242.00	16
243.00	5
244.90	63
246.00	71
248.00	24
249.00	36
250.90	65
253.00	18
255.00	23
257.00	30
258.00	46
259.00	35
260.00	57
261.00	58
262.90	4
263.90	12
265.00	108
268.00	1
270.00	16
271.00	16
272.00	1
275.90	29
278.00	5
280.00	13
281.00	100
283.00	72
284.00	20
285.00	4
286.00	61
289.00	32
291.00	19
292.00	18
293.00	22
294.00	13
295.00	10
296.00	1
301.00	33
304.00	14
305.00	8
306.00	28
307.00	14
309.00	25
310.00	4
316.00	43
323.00	53
324.00	40
326.00	18
327.00	23
329.00	12
332.00	28
334.00	7
335.00	32
336.00	28
337.00	27
338.00	14
344.00	113
345.00	17
346.00	15
349.00	28
350.00	1
351.00	37
353.00	36
354.00	11
355.00	153
356.00	10
360.00	88
363.00	19
364.00	20
365.00	37
367.00	2
368.00	16
373.00	4
374.00	20
375.00	23
376.00	11
382.00	4
383.00	12
385.00	8
386.00	19
390.00	16
391.00	14
392.00	50
393.00	36
394.00	31
395.00	25
396.00	20
397.00	11
399.00	17
